*RAS_DATA_START
*RAS_HEADER_START
*DISP_FMT_X "%.3f"
*DISP_FMT_Y "%.0f"
*DISP_FULLSCALE "277.0206900458"
*DISP_LINE_COLOR "255.0000000000"
*DISP_LINE_STYLE "0.0000000000"
*DISP_LINE_WIDTH "0.2500000000"
*DISP_NOTE "測定データ-1"
*DISP_OFFSET_Y "0.0000000000"
*DISP_PEAKSEARCH_UNIT_Y "cps"
*DISP_RANGE_BOTTOM "0.0000000000"
*DISP_RANGE_LEFT "5.0000000000"
*DISP_RANGE_LOGCUTOFF "0.0100000000"
*DISP_RANGE_RIGHT "79.9930000000"
*DISP_RANGE_TOP "277.0206900458"
*DISP_SCALE_MODE_Y "0.0000000000"
*DISP_TAB_NAME "2θ/ω"
*DISP_TITLE_Y "強度"
*DISP_UNIT_Y "cps"
*DISP_WINDOW_NAME "MSG_MACROENGINE"
*FILE_COMMENT " "
*FILE_MD5 ""
*FILE_MEMO " "
*FILE_OPERATOR "administrator"
*FILE_PART_ID "MEAS_KHP2_00061"
*FILE_SAMPLE " "
*FILE_TYPE "RAS_RAW"
*FILE_USERGROUP "システムマネージャ"
*FILE_VERSION "1.0000000000"
*HW_ATTACHMENT_ID "ATT0025"
*HW_ATTACHMENT_NAME "標準|Standard"
*HW_COUNTER_ID-0 "CUT0021"
*HW_COUNTER_ID-1 "CUT0051"
*HW_COUNTER_ID-2 "CUT0020"
*HW_COUNTER_ID-3 "CSL0021"
*HW_COUNTER_ID-4 "CMC0021"
*HW_COUNTER_NAME-0 "SC-70|SC-70"
*HW_COUNTER_NAME-1 "HyPix 3000(H)|HyPix 3000(H)"
*HW_COUNTER_NAME-2 "None|None"
*HW_COUNTER_NAME-3 "BBM|BBM"
*HW_COUNTER_NAME-4 "検出器モノクロメータ|Detector monochromator"
*HW_COUNTER_SELECT_NAME "HyPix 3000(H)|HyPix 3000(H)"
*HW_GONIOMETER_ID "GON0023"
*HW_GONIOMETER_NAME "SmartLab|SmartLab"
*HW_GONIOMETER_RADIUS-0 "90.0"
*HW_GONIOMETER_RADIUS-1 "114.0"
*HW_GONIOMETER_RADIUS-2 "190.0"
*HW_GONIOMETER_RADIUS-3 "300.0"
*HW_GONIOMETER_RADIUS-4 "187.0"
*HW_GONIOMETER_RADIUS-5 "300.0"
*HW_GONIOMETER_RADIUS-6 "113.0"
*HW_GONIOMETER_RADIUS-7 "331.0"
*HW_I_OPT_ID-0 "CBO0021"
*HW_I_OPT_ID-1 "ICR0023"
*HW_I_OPT_ID-2 "ISL0021"
*HW_I_OPT_ID-3 "ISO0021"
*HW_I_OPT_ID-4 "IAD0021"
*HW_I_OPT_ID-5 "IPR0002"
*HW_I_OPT_NAME-0 "CBOユニット|CBO unit"
*HW_I_OPT_NAME-1 "標準入射光学ユニット|Standard incident optical unit"
*HW_I_OPT_NAME-2 "標準入射スリットボックス|Standard incident slit box"
*HW_I_OPT_NAME-3 "入射平行スリット|Incident parallel slit"
*HW_I_OPT_NAME-4 "長手制限スリット|Length limiting slit"
*HW_I_OPT_NAME-5 "Ka1|Ka1"
*HW_R_ATTENUATER_AUTOMODE "0"
*HW_R_OPT_ID-0 "RSS0022"
*HW_R_OPT_ID-1 "RCR0022"
*HW_R_OPT_ID-2 "RSO0021"
*HW_R_OPT_ID-3 "RRS0022"
*HW_R_OPT_ID-4 "ATN0020"
*HW_R_OPT_ID-5 "RFL0021"
*HW_R_OPT_ID-6 "RAD0021"
*HW_R_OPT_NAME-0 "受光スリットボックス1(Zr軸付)|Receiving slit box # 1 (w/ Zr Axis)"
*HW_R_OPT_NAME-1 "標準受光光学ユニット1|Standard receiving unit # 1"
*HW_R_OPT_NAME-2 "標準受光光学ユニット2|Standard receiving optical unit # 2"
*HW_R_OPT_NAME-3 "標準受光スリットボックス2|Standard receiving slit box # 2"
*HW_R_OPT_NAME-4 "無し|None"
*HW_R_OPT_NAME-5 "Cu Kβ|Cu K-beta"
*HW_R_OPT_NAME-6 "調整用受光スリット|Alignment receiving slit"
*HW_SAMPLE_HOLDER_ID "SMP0023"
*HW_SAMPLE_HOLDER_NAME "標準Zステージ|Standard Z stage"
*HW_XG_CURRENT_MAX "200"
*HW_XG_CURRENT_MIN "10"
*HW_XG_CURRENT_RESOLUTION "2"
*HW_XG_CURRENT_UNIT "mA"
*HW_XG_FOCUS ""
*HW_XG_FOCUS_TYPE "Normal"
*HW_XG_ID ""
*HW_XG_NAME "9kW 開放管(45kV 200mA ID:1700)|9kW Rotating anode(45kV 200mA ID:1700)"
*HW_XG_TARGET_ATOMIC_NUMBER "29.0000000000"
*HW_XG_TARGET_NAME "Cu"
*HW_XG_TYPE "Rota"
*HW_XG_VOLTAGE_MAX "45"
*HW_XG_VOLTAGE_MIN "20"
*HW_XG_VOLTAGE_RESOLUTION "2"
*HW_XG_VOLTAGE_UNIT "kV"
*HW_XG_WATT_MAX "9"
*HW_XG_WATT_UNIT "kW"
*HW_XG_WAVE_LENGTH_ALPHA1 "1.540593"
*HW_XG_WAVE_LENGTH_ALPHA2 "1.544414"
*HW_XG_WAVE_LENGTH_BETA "1.392250"
*MEAS_COND_AXIS_NAME-0 "2θ/θ"
*MEAS_COND_AXIS_NAME-1 "2θ"
*MEAS_COND_AXIS_NAME-2 "ω"
*MEAS_COND_AXIS_NAME-3 "Z"
*MEAS_COND_AXIS_NAME-4 "2θ/ω"
*MEAS_COND_AXIS_NAME-5 "θs"
*MEAS_COND_AXIS_NAME-6 "θd"
*MEAS_COND_AXIS_NAME-7 "Ts"
*MEAS_COND_AXIS_NAME-8 "CBO選択スリット"
*MEAS_COND_AXIS_NAME-9 "M"
*MEAS_COND_AXIS_NAME-10 "入射平行スリット"
*MEAS_COND_AXIS_NAME-11 "入射スリット"
*MEAS_COND_AXIS_NAME-12 ""
*MEAS_COND_AXIS_NAME-13 "Zs"
*MEAS_COND_AXIS_NAME-14 "入射光学素子"
*MEAS_COND_AXIS_NAME-15 "長手制限スリット"
*MEAS_COND_AXIS_NAME-16 "センタースリット"
*MEAS_COND_AXIS_NAME-17 "フィルター"
*MEAS_COND_AXIS_NAME-18 "受光スリット1"
*MEAS_COND_AXIS_NAME-19 "受光スリット2"
*MEAS_COND_AXIS_NAME-20 "受光光学素子"
*MEAS_COND_AXIS_NAME-21 "受光平行スリット"
*MEAS_COND_AXIS_NAME-22 "調整用受光スリット"
*MEAS_COND_AXIS_NAME-23 ""
*MEAS_COND_AXIS_NAME-24 ""
*MEAS_COND_AXIS_NAME-25 "Zd"
*MEAS_COND_AXIS_NAME-26 "アッテネータ"
*MEAS_COND_AXIS_NAME-27 "検出器モノクロメータ"
*MEAS_COND_AXIS_NAME-28 "モノクロメータスリット"
*MEAS_COND_AXIS_NAME-29 "Zr"
*MEAS_COND_AXIS_NAME-30 "プライマリビーム"
*MEAS_COND_AXIS_NAME-31 "Ma"
*MEAS_COND_AXIS_NAME_INTERNAL-0 "TwoThetaTheta"
*MEAS_COND_AXIS_NAME_INTERNAL-1 "TwoTheta"
*MEAS_COND_AXIS_NAME_INTERNAL-2 "Omega"
*MEAS_COND_AXIS_NAME_INTERNAL-3 "Z"
*MEAS_COND_AXIS_NAME_INTERNAL-4 "TwoThetaOmega"
*MEAS_COND_AXIS_NAME_INTERNAL-5 "ThetaS"
*MEAS_COND_AXIS_NAME_INTERNAL-6 "ThetaD"
*MEAS_COND_AXIS_NAME_INTERNAL-7 "Ts"
*MEAS_COND_AXIS_NAME_INTERNAL-8 "CBO"
*MEAS_COND_AXIS_NAME_INTERNAL-9 "CBO-M"
*MEAS_COND_AXIS_NAME_INTERNAL-10 "IncidentSollerSlit"
*MEAS_COND_AXIS_NAME_INTERNAL-11 "IncidentSlitBox"
*MEAS_COND_AXIS_NAME_INTERNAL-12 "IncidentSlitBox-_Axis"
*MEAS_COND_AXIS_NAME_INTERNAL-13 "Zs"
*MEAS_COND_AXIS_NAME_INTERNAL-14 "IncidentMonochromator"
*MEAS_COND_AXIS_NAME_INTERNAL-15 "IncidentAxdSlit"
*MEAS_COND_AXIS_NAME_INTERNAL-16 "CenterSlit"
*MEAS_COND_AXIS_NAME_INTERNAL-17 "Filter"
*MEAS_COND_AXIS_NAME_INTERNAL-18 "ReceivingSlitBox1"
*MEAS_COND_AXIS_NAME_INTERNAL-19 "ReceivingSlitBox2"
*MEAS_COND_AXIS_NAME_INTERNAL-20 "ReceivingOptics"
*MEAS_COND_AXIS_NAME_INTERNAL-21 "ReceivingSollerSlit"
*MEAS_COND_AXIS_NAME_INTERNAL-22 "ReceivingAxdSlit"
*MEAS_COND_AXIS_NAME_INTERNAL-23 "ReceivingSlitBox1-_Axis"
*MEAS_COND_AXIS_NAME_INTERNAL-24 "ReceivingSlitBox2-_Axis"
*MEAS_COND_AXIS_NAME_INTERNAL-25 "ReceivingSlitBox2-Zd"
*MEAS_COND_AXIS_NAME_INTERNAL-26 "Attenuator"
*MEAS_COND_AXIS_NAME_INTERNAL-27 "CounterMonochromator"
*MEAS_COND_AXIS_NAME_INTERNAL-28 "CounterSlit"
*MEAS_COND_AXIS_NAME_INTERNAL-29 "ReceivingSlitBox1-Zr"
*MEAS_COND_AXIS_NAME_INTERNAL-30 "IncidentPrimary"
*MEAS_COND_AXIS_NAME_INTERNAL-31 "IncidentPrimary-Ma"
*MEAS_COND_AXIS_NAME_MAGICNO-0 "83951616.0000000000"
*MEAS_COND_AXIS_NAME_MAGICNO-1 "268632064.0000000000"
*MEAS_COND_AXIS_NAME_MAGICNO-2 "268500992.0000000000"
*MEAS_COND_AXIS_NAME_MAGICNO-3 "285278208.0000000000"
*MEAS_COND_AXIS_NAME_MAGICNO-4 "83951616.0000000000"
*MEAS_COND_AXIS_NAME_MAGICNO-5 "131072.0000000000"
*MEAS_COND_AXIS_NAME_MAGICNO-6 "131072.0000000000"
*MEAS_COND_AXIS_NAME_MAGICNO-7 "318898176.0000000000"
*MEAS_COND_AXIS_NAME_MAGICNO-8 "20971521.0000000000"
*MEAS_COND_AXIS_NAME_MAGICNO-9 "285343744.0000000000"
*MEAS_COND_AXIS_NAME_MAGICNO-10 "20971521.0000000000"
*MEAS_COND_AXIS_NAME_MAGICNO-11 "22020097.0000000000"
*MEAS_COND_AXIS_NAME_MAGICNO-12 "25165824.0000000000"
*MEAS_COND_AXIS_NAME_MAGICNO-13 "318898176.0000000000"
*MEAS_COND_AXIS_NAME_MAGICNO-14 "1.0000000000"
*MEAS_COND_AXIS_NAME_MAGICNO-15 "20971521.0000000000"
*MEAS_COND_AXIS_NAME_MAGICNO-16 "20971521.0000000000"
*MEAS_COND_AXIS_NAME_MAGICNO-17 "20971521.0000000000"
*MEAS_COND_AXIS_NAME_MAGICNO-18 "23068673.0000000000"
*MEAS_COND_AXIS_NAME_MAGICNO-19 "23068673.0000000000"
*MEAS_COND_AXIS_NAME_MAGICNO-20 "20971521.0000000000"
*MEAS_COND_AXIS_NAME_MAGICNO-21 "20971521.0000000000"
*MEAS_COND_AXIS_NAME_MAGICNO-22 "20971521.0000000000"
*MEAS_COND_AXIS_NAME_MAGICNO-23 "25165824.0000000000"
*MEAS_COND_AXIS_NAME_MAGICNO-24 "25165824.0000000000"
*MEAS_COND_AXIS_NAME_MAGICNO-25 "285343744.0000000000"
*MEAS_COND_AXIS_NAME_MAGICNO-26 "0.0000000000"
*MEAS_COND_AXIS_NAME_MAGICNO-27 "20971521.0000000000"
*MEAS_COND_AXIS_NAME_MAGICNO-28 "20971521.0000000000"
*MEAS_COND_AXIS_NAME_MAGICNO-29 "285343744.0000000000"
*MEAS_COND_AXIS_NAME_MAGICNO-30 "20971521.0000000000"
*MEAS_COND_AXIS_NAME_MAGICNO-31 "285343744.0000000000"
*MEAS_COND_AXIS_OFFSET-0 "-"
*MEAS_COND_AXIS_OFFSET-1 "0.1521000000"
*MEAS_COND_AXIS_OFFSET-2 "0.1635000000"
*MEAS_COND_AXIS_OFFSET-3 "-"
*MEAS_COND_AXIS_OFFSET-4 "-"
*MEAS_COND_AXIS_OFFSET-5 "0.1635000000"
*MEAS_COND_AXIS_OFFSET-6 "-0.0114000000"
*MEAS_COND_AXIS_OFFSET-7 "-"
*MEAS_COND_AXIS_OFFSET-8 "-"
*MEAS_COND_AXIS_OFFSET-9 "-"
*MEAS_COND_AXIS_OFFSET-10 "-"
*MEAS_COND_AXIS_OFFSET-11 "-"
*MEAS_COND_AXIS_OFFSET-12 "-"
*MEAS_COND_AXIS_OFFSET-13 "-"
*MEAS_COND_AXIS_OFFSET-14 "-"
*MEAS_COND_AXIS_OFFSET-15 "-"
*MEAS_COND_AXIS_OFFSET-16 "-"
*MEAS_COND_AXIS_OFFSET-17 "-"
*MEAS_COND_AXIS_OFFSET-18 "-"
*MEAS_COND_AXIS_OFFSET-19 "-"
*MEAS_COND_AXIS_OFFSET-20 "-"
*MEAS_COND_AXIS_OFFSET-21 "-"
*MEAS_COND_AXIS_OFFSET-22 "-"
*MEAS_COND_AXIS_OFFSET-23 "-"
*MEAS_COND_AXIS_OFFSET-24 "-"
*MEAS_COND_AXIS_OFFSET-25 "-"
*MEAS_COND_AXIS_OFFSET-26 "-"
*MEAS_COND_AXIS_OFFSET-27 "-"
*MEAS_COND_AXIS_OFFSET-28 "-"
*MEAS_COND_AXIS_OFFSET-29 "-"
*MEAS_COND_AXIS_OFFSET-30 "-"
*MEAS_COND_AXIS_OFFSET-31 "-"
*MEAS_COND_AXIS_POSITION-0 "0.0000000000"
*MEAS_COND_AXIS_POSITION-1 "0.0000000000"
*MEAS_COND_AXIS_POSITION-2 "0.0000000000"
*MEAS_COND_AXIS_POSITION-3 "-0.0500000000"
*MEAS_COND_AXIS_POSITION-4 "0.0000000000"
*MEAS_COND_AXIS_POSITION-5 "0.0000000000"
*MEAS_COND_AXIS_POSITION-6 "0.0000000000"
*MEAS_COND_AXIS_POSITION-7 "0.6961900000"
*MEAS_COND_AXIS_POSITION-8 "BB"
*MEAS_COND_AXIS_POSITION-9 "0.0000000000"
*MEAS_COND_AXIS_POSITION-10 "Soller_slit_5.0deg"
*MEAS_COND_AXIS_POSITION-11 "1.000deg"
*MEAS_COND_AXIS_POSITION-12 "3.3163000000"
*MEAS_COND_AXIS_POSITION-13 "0.2993800000"
*MEAS_COND_AXIS_POSITION-14 "0.0000000000"
*MEAS_COND_AXIS_POSITION-15 "10.0mm"
*MEAS_COND_AXIS_POSITION-16 "None"
*MEAS_COND_AXIS_POSITION-17 "None"
*MEAS_COND_AXIS_POSITION-18 "1.000mm"
*MEAS_COND_AXIS_POSITION-19 "1.100mm"
*MEAS_COND_AXIS_POSITION-20 "PSA_open"
*MEAS_COND_AXIS_POSITION-21 "Soller_slit_5.0deg"
*MEAS_COND_AXIS_POSITION-22 "None"
*MEAS_COND_AXIS_POSITION-23 "1.0000000000"
*MEAS_COND_AXIS_POSITION-24 "1.1000000000"
*MEAS_COND_AXIS_POSITION-25 "0.0000000000"
*MEAS_COND_AXIS_POSITION-26 "-"
*MEAS_COND_AXIS_POSITION-27 "No_unit"
*MEAS_COND_AXIS_POSITION-28 "None"
*MEAS_COND_AXIS_POSITION-29 "0.1015600000"
*MEAS_COND_AXIS_POSITION-30 "Johansson(Ka1)"
*MEAS_COND_AXIS_POSITION-31 "0.0000000000"
*MEAS_COND_AXIS_UNIT-0 "deg"
*MEAS_COND_AXIS_UNIT-1 "deg"
*MEAS_COND_AXIS_UNIT-2 "deg"
*MEAS_COND_AXIS_UNIT-3 "mm"
*MEAS_COND_AXIS_UNIT-4 "deg"
*MEAS_COND_AXIS_UNIT-5 "deg"
*MEAS_COND_AXIS_UNIT-6 "deg"
*MEAS_COND_AXIS_UNIT-7 "mm"
*MEAS_COND_AXIS_UNIT-8 ""
*MEAS_COND_AXIS_UNIT-9 "pulse"
*MEAS_COND_AXIS_UNIT-10 ""
*MEAS_COND_AXIS_UNIT-11 ""
*MEAS_COND_AXIS_UNIT-12 "mm"
*MEAS_COND_AXIS_UNIT-13 "mm"
*MEAS_COND_AXIS_UNIT-14 ""
*MEAS_COND_AXIS_UNIT-15 ""
*MEAS_COND_AXIS_UNIT-16 ""
*MEAS_COND_AXIS_UNIT-17 ""
*MEAS_COND_AXIS_UNIT-18 ""
*MEAS_COND_AXIS_UNIT-19 ""
*MEAS_COND_AXIS_UNIT-20 ""
*MEAS_COND_AXIS_UNIT-21 ""
*MEAS_COND_AXIS_UNIT-22 ""
*MEAS_COND_AXIS_UNIT-23 "mm"
*MEAS_COND_AXIS_UNIT-24 "mm"
*MEAS_COND_AXIS_UNIT-25 "mm"
*MEAS_COND_AXIS_UNIT-26 ""
*MEAS_COND_AXIS_UNIT-27 ""
*MEAS_COND_AXIS_UNIT-28 ""
*MEAS_COND_AXIS_UNIT-29 "mm"
*MEAS_COND_AXIS_UNIT-30 ""
*MEAS_COND_AXIS_UNIT-31 "pulse"
*MEAS_COND_COUNTER_CNTLOSS_CORR "0.0000000000"
*MEAS_COND_COUNTER_TAUDIFF "0.0000000000"
*MEAS_COND_COUNTER_TAUINT "0.0000000000"
*MEAS_COND_COUNTER_TEMP_CONDITION "NORMAL"
*MEAS_COND_IRRADIATION_MODE "OFF"
*MEAS_COND_IRRADIATION_WIDTH ""
*MEAS_COND_OPT_ATTR "集中法"
*MEAS_COND_OPT_NAME "@集中法"
*MEAS_COND_UNSYMMETRIC_MODE "OFF"
*MEAS_COND_XG_CURRENT "200.0000000000"
*MEAS_COND_XG_VOLTAGE "45.0000000000"
*MEAS_COND_XG_WAVE_TYPE "Ka1"
*MEAS_DATA_COUNT "7499.0000000000"
*MEAS_SCAN_AXIS_X "2θ/ω"
*MEAS_SCAN_AXIS_X_INTERNAL "TwoThetaOmega"
*MEAS_SCAN_END_TIME "05/09/23 10:26:32"
*MEAS_SCAN_MODE "CONTINUOUS"
*MEAS_SCAN_MONITOR "0"
*MEAS_SCAN_RESOLUTION_X "0.0002"
*MEAS_SCAN_SPEED "2.012958"
*MEAS_SCAN_SPEED_UNIT "deg/min"
*MEAS_SCAN_SPEED_USER "2.000000"
*MEAS_SCAN_START "5.0000000000"
*MEAS_SCAN_START_TIME "05/09/23 09:48:41"
*MEAS_SCAN_STEP "0.0100000000"
*MEAS_SCAN_STOP "79.9800000000"
*MEAS_SCAN_UNIT_X "deg"
*MEAS_SCAN_UNIT_Y "counts"
*RAS_HEADER_END
*RAS_INT_START
5.0000 5.2243 1.0000
5.0100 3.8571 1.0000
5.0200 2.7626 1.0000
5.0300 4.4210 1.0000
5.0400 5.7248 1.0000
5.0500 5.4162 1.0000
5.0600 5.2256 1.0000
5.0700 5.3537 1.0000
5.0800 5.8993 1.0000
5.0900 7.1854 1.0000
5.1000 7.1842 1.0000
5.1100 5.6140 1.0000
5.1200 5.2378 1.0000
5.1300 5.8754 1.0000
5.1400 6.1111 1.0000
5.1500 6.1118 1.0000
5.1600 5.7049 1.0000
5.1700 5.1404 1.0000
5.1800 5.8915 1.0000
5.1900 6.9488 1.0000
5.2000 6.2089 1.0000
5.2100 5.2725 1.0000
5.2200 5.0923 1.0000
5.2300 4.9938 1.0000
5.2400 5.7421 1.0000
5.2500 6.0892 1.0000
5.2600 4.5026 1.0000
5.2700 3.5041 1.0000
5.2800 4.1626 1.0000
5.2900 4.4795 1.0000
5.3000 4.1678 1.0000
5.3100 4.5206 1.0000
5.3200 5.7116 1.0000
5.3300 6.3687 1.0000
5.3400 6.5568 1.0000
5.3500 6.1271 1.0000
5.3600 5.3226 1.0000
5.3700 4.2441 1.0000
5.3800 3.0550 1.0000
5.3900 3.4039 1.0000
5.4000 4.1307 1.0000
5.4100 4.7045 1.0000
5.4200 5.2601 1.0000
5.4300 5.2705 1.0000
5.4400 5.1892 1.0000
5.4500 4.0673 1.0000
5.4600 3.3613 1.0000
5.4700 4.7852 1.0000
5.4800 5.8561 1.0000
5.4900 5.8876 1.0000
5.5000 6.0075 1.0000
5.5100 6.2961 1.0000
5.5200 6.0976 1.0000
5.5300 5.2635 1.0000
5.5400 4.9669 1.0000
5.5500 5.1587 1.0000
5.5600 5.1205 1.0000
5.5700 4.9376 1.0000
5.5800 5.4683 1.0000
5.5900 6.2987 1.0000
5.6000 4.8722 1.0000
5.6100 2.8613 1.0000
5.6200 3.3581 1.0000
5.6300 4.1825 1.0000
5.6400 3.6683 1.0000
5.6500 3.1561 1.0000
5.6600 3.1757 1.0000
5.6700 3.2184 1.0000
5.6800 3.3880 1.0000
5.6900 3.6680 1.0000
5.7000 4.2885 1.0000
5.7100 5.1712 1.0000
5.7200 6.5743 1.0000
5.7300 6.4408 1.0000
5.7400 4.2312 1.0000
5.7500 3.6758 1.0000
5.7600 4.6753 1.0000
5.7700 5.4533 1.0000
5.7800 6.0869 1.0000
5.7900 5.0039 1.0000
5.8000 3.1701 1.0000
5.8100 4.1040 1.0000
5.8200 5.7920 1.0000
5.8300 4.9286 1.0000
5.8400 3.7040 1.0000
5.8500 3.7664 1.0000
5.8600 3.8207 1.0000
5.8700 2.9829 1.0000
5.8800 2.2526 1.0000
5.8900 2.1489 1.0000
5.9000 2.2970 1.0000
5.9100 3.2573 1.0000
5.9200 4.0748 1.0000
5.9300 4.5980 1.0000
5.9400 4.9377 1.0000
5.9500 5.0205 1.0000
5.9600 4.8876 1.0000
5.9700 4.5448 1.0000
5.9800 4.2782 1.0000
5.9900 4.0632 1.0000
6.0000 4.2505 1.0000
6.0100 4.6210 1.0000
6.0200 4.8527 1.0000
6.0300 5.0448 1.0000
6.0400 5.3045 1.0000
6.0500 5.5745 1.0000
6.0600 5.6789 1.0000
6.0700 5.7141 1.0000
6.0800 4.5163 1.0000
6.0900 3.7129 1.0000
6.1000 5.3737 1.0000
6.1100 6.5491 1.0000
6.1200 6.0817 1.0000
6.1300 6.0517 1.0000
6.1400 6.9585 1.0000
6.1500 6.7687 1.0000
6.1600 4.9906 1.0000
6.1700 3.7644 1.0000
6.1800 3.0934 1.0000
6.1900 3.1448 1.0000
6.2000 3.7008 1.0000
6.2100 4.6925 1.0000
6.2200 5.8902 1.0000
6.2300 4.9455 1.0000
6.2400 3.3571 1.0000
6.2500 2.3769 1.0000
6.2600 1.4965 1.0000
6.2700 2.1319 1.0000
6.2800 2.8534 1.0000
6.2900 3.6957 1.0000
6.3000 4.3888 1.0000
6.3100 4.0792 1.0000
6.3200 4.1410 1.0000
6.3300 5.5220 1.0000
6.3400 5.9311 1.0000
6.3500 4.1747 1.0000
6.3600 3.7068 1.0000
6.3700 5.1722 1.0000
6.3800 6.1601 1.0000
6.3900 6.6510 1.0000
6.4000 6.2393 1.0000
6.4100 5.1744 1.0000
6.4200 4.3534 1.0000
6.4300 3.6525 1.0000
6.4400 4.6634 1.0000
6.4500 6.2134 1.0000
6.4600 5.7608 1.0000
6.4700 4.9567 1.0000
6.4800 5.4400 1.0000
6.4900 5.9494 1.0000
6.5000 4.7363 1.0000
6.5100 3.6723 1.0000
6.5200 3.6915 1.0000
6.5300 3.5281 1.0000
6.5400 2.6826 1.0000
6.5500 2.0359 1.0000
6.5600 1.8505 1.0000
6.5700 1.9602 1.0000
6.5800 2.5286 1.0000
6.5900 3.7587 1.0000
6.6000 5.7011 1.0000
6.6100 5.2050 1.0000
6.6200 2.8826 1.0000
6.6300 1.7916 1.0000
6.6400 1.3297 1.0000
6.6500 2.6890 1.0000
6.6600 4.6488 1.0000
6.6700 5.3909 1.0000
6.6800 5.9047 1.0000
6.6900 4.2288 1.0000
6.7000 2.4496 1.0000
6.7100 3.0977 1.0000
6.7200 3.7729 1.0000
6.7300 4.6620 1.0000
6.7400 5.0802 1.0000
6.7500 3.6467 1.0000
6.7600 2.9524 1.0000
6.7700 4.0429 1.0000
6.7800 4.6092 1.0000
6.7900 4.3313 1.0000
6.8000 4.4115 1.0000
6.8100 4.8904 1.0000
6.8200 4.7790 1.0000
6.8300 4.2100 1.0000
6.8400 3.4776 1.0000
6.8500 2.6584 1.0000
6.8600 3.4030 1.0000
6.8700 4.6870 1.0000
6.8800 4.2193 1.0000
6.8900 3.4022 1.0000
6.9000 3.7501 1.0000
6.9100 4.1827 1.0000
6.9200 3.8261 1.0000
6.9300 3.5898 1.0000
6.9400 4.3877 1.0000
6.9500 4.9986 1.0000
6.9600 4.8341 1.0000
6.9700 4.4327 1.0000
6.9800 3.4357 1.0000
6.9900 2.9795 1.0000
7.0000 3.4267 1.0000
7.0100 4.2182 1.0000
7.0200 5.4063 1.0000
7.0300 5.1790 1.0000
7.0400 3.8160 1.0000
7.0500 3.3261 1.0000
7.0600 3.3166 1.0000
7.0700 2.3717 1.0000
7.0800 1.0896 1.0000
7.0900 2.2568 1.0000
7.1000 3.9425 1.0000
7.1100 3.6391 1.0000
7.1200 3.1561 1.0000
7.1300 3.4341 1.0000
7.1400 3.7208 1.0000
7.1500 4.0906 1.0000
7.1600 4.2905 1.0000
7.1700 3.7456 1.0000
7.1800 3.3480 1.0000
7.1900 3.3371 1.0000
7.2000 3.2326 1.0000
7.2100 2.9662 1.0000
7.2200 2.6530 1.0000
7.2300 2.2842 1.0000
7.2400 2.4114 1.0000
7.2500 2.9504 1.0000
7.2600 3.0238 1.0000
7.2700 2.8313 1.0000
7.2800 3.7347 1.0000
7.2900 5.0503 1.0000
7.3000 4.9040 1.0000
7.3100 4.4298 1.0000
7.3200 3.7148 1.0000
7.3300 2.9750 1.0000
7.3400 3.0649 1.0000
7.3500 3.1496 1.0000
7.3600 3.1535 1.0000
7.3700 3.3191 1.0000
7.3800 4.2353 1.0000
7.3900 4.7598 1.0000
7.4000 4.2121 1.0000
7.4100 4.0224 1.0000
7.4200 4.4756 1.0000
7.4300 4.3548 1.0000
7.4400 3.5261 1.0000
7.4500 3.5281 1.0000
7.4600 4.2438 1.0000
7.4700 3.7135 1.0000
7.4800 2.4454 1.0000
7.4900 2.4163 1.0000
7.5000 2.8733 1.0000
7.5100 2.9628 1.0000
7.5200 2.9650 1.0000
7.5300 3.8672 1.0000
7.5400 4.8711 1.0000
7.5500 3.6321 1.0000
7.5600 2.4655 1.0000
7.5700 2.4483 1.0000
7.5800 2.4204 1.0000
7.5900 2.3408 1.0000
7.6000 2.5465 1.0000
7.6100 3.5686 1.0000
7.6200 4.1583 1.0000
7.6300 3.9421 1.0000
7.6400 3.6213 1.0000
7.6500 3.1670 1.0000
7.6600 2.8623 1.0000
7.6700 2.6905 1.0000
7.6800 2.8528 1.0000
7.6900 3.2202 1.0000
7.7000 2.7356 1.0000
7.7100 1.9026 1.0000
7.7200 2.0477 1.0000
7.7300 2.4375 1.0000
7.7400 2.2322 1.0000
7.7500 1.9533 1.0000
7.7600 2.7518 1.0000
7.7700 3.4998 1.0000
7.7800 3.2921 1.0000
7.7900 3.0034 1.0000
7.8000 2.2914 1.0000
7.8100 2.3047 1.0000
7.8200 4.4872 1.0000
7.8300 5.6141 1.0000
7.8400 4.6983 1.0000
7.8500 3.6634 1.0000
7.8600 2.4711 1.0000
7.8700 2.3752 1.0000
7.8800 3.2872 1.0000
7.8900 2.8056 1.0000
7.9000 1.4372 1.0000
7.9100 1.6782 1.0000
7.9200 2.6046 1.0000
7.9300 3.6028 1.0000
7.9400 4.6198 1.0000
7.9500 3.2300 1.0000
7.9600 1.5167 1.0000
7.9700 1.7056 1.0000
7.9800 1.9797 1.0000
7.9900 2.7049 1.0000
8.0000 3.4867 1.0000
8.0100 4.5843 1.0000
8.0200 5.3912 1.0000
8.0300 5.2879 1.0000
8.0400 4.6686 1.0000
8.0500 3.0123 1.0000
8.0600 2.1049 1.0000
8.0700 2.2214 1.0000
8.0800 2.9405 1.0000
8.0900 4.2328 1.0000
8.1000 4.5284 1.0000
8.1100 4.1670 1.0000
8.1200 3.4135 1.0000
8.1300 2.4860 1.0000
8.1400 2.1344 1.0000
8.1500 1.9423 1.0000
8.1600 2.6299 1.0000
8.1700 3.4453 1.0000
8.1800 3.4874 1.0000
8.1900 3.4457 1.0000
8.2000 2.4429 1.0000
8.2100 1.7801 1.0000
8.2200 3.1458 1.0000
8.2300 4.0869 1.0000
8.2400 3.6358 1.0000
8.2500 3.0603 1.0000
8.2600 2.2248 1.0000
8.2700 2.2706 1.0000
8.2800 3.5644 1.0000
8.2900 3.6019 1.0000
8.3000 2.4035 1.0000
8.3100 2.5173 1.0000
8.3200 3.5271 1.0000
8.3300 4.0386 1.0000
8.3400 4.3203 1.0000
8.3500 3.1116 1.0000
8.3600 1.4690 1.0000
8.3700 1.6275 1.0000
8.3800 2.0678 1.0000
8.3900 1.9189 1.0000
8.4000 1.7785 1.0000
8.4100 2.4155 1.0000
8.4200 2.8331 1.0000
8.4300 1.8450 1.0000
8.4400 1.2311 1.0000
8.4500 1.9043 1.0000
8.4600 2.5541 1.0000
8.4700 3.1531 1.0000
8.4800 3.6944 1.0000
8.4900 4.1512 1.0000
8.5000 4.5108 1.0000
8.5100 4.7715 1.0000
8.5200 4.6195 1.0000
8.5300 4.1757 1.0000
8.5400 4.0259 1.0000
8.5500 4.0170 1.0000
8.5600 4.0788 1.0000
8.5700 4.1622 1.0000
8.5800 4.1254 1.0000
8.5900 4.0685 1.0000
8.6000 4.2370 1.0000
8.6100 4.3506 1.0000
8.6200 2.6782 1.0000
8.6300 1.3103 1.0000
8.6400 2.0433 1.0000
8.6500 2.5209 1.0000
8.6600 2.0751 1.0000
8.6700 1.7915 1.0000
8.6800 1.8740 1.0000
8.6900 2.2265 1.0000
8.7000 2.9889 1.0000
8.7100 3.1425 1.0000
8.7200 2.6551 1.0000
8.7300 2.5012 1.0000
8.7400 2.5917 1.0000
8.7500 2.8159 1.0000
8.7600 3.1067 1.0000
8.7700 2.6170 1.0000
8.7800 1.8775 1.0000
8.7900 1.3685 1.0000
8.8000 0.9007 1.0000
8.8100 1.2159 1.0000
8.8200 1.5735 1.0000
8.8300 1.6083 1.0000
8.8400 1.6554 1.0000
8.8500 1.7940 1.0000
8.8600 2.0780 1.0000
8.8700 2.9147 1.0000
8.8800 3.4195 1.0000
8.8900 3.1439 1.0000
8.9000 2.8230 1.0000
8.9100 2.4307 1.0000
8.9200 2.2416 1.0000
8.9300 2.2738 1.0000
8.9400 2.4402 1.0000
8.9500 2.7083 1.0000
8.9600 3.0476 1.0000
8.9700 3.4239 1.0000
8.9800 2.7579 1.0000
8.9900 1.7429 1.0000
9.0000 1.8749 1.0000
9.0100 2.2266 1.0000
9.0200 2.3632 1.0000
9.0300 2.4884 1.0000
9.0400 2.8546 1.0000
9.0500 3.1597 1.0000
9.0600 2.9694 1.0000
9.0700 2.8145 1.0000
9.0800 2.8012 1.0000
9.0900 3.0112 1.0000
9.1000 3.7681 1.0000
9.1100 3.6375 1.0000
9.1200 2.0596 1.0000
9.1300 1.5615 1.0000
9.1400 2.2798 1.0000
9.1500 2.8617 1.0000
9.1600 3.3365 1.0000
9.1700 2.9785 1.0000
9.1800 2.1730 1.0000
9.1900 2.0138 1.0000
9.2000 2.0810 1.0000
9.2100 2.5521 1.0000
9.2200 3.1054 1.0000
9.2300 3.2468 1.0000
9.2400 3.3445 1.0000
9.2500 2.6977 1.0000
9.2600 2.2636 1.0000
9.2700 3.7193 1.0000
9.2800 4.6539 1.0000
9.2900 3.3859 1.0000
9.3000 2.2887 1.0000
9.3100 1.6271 1.0000
9.3200 1.7935 1.0000
9.3300 3.3599 1.0000
9.3400 3.5691 1.0000
9.3500 2.1966 1.0000
9.3600 1.8806 1.0000
9.3700 2.4223 1.0000
9.3800 2.7945 1.0000
9.3900 3.0723 1.0000
9.4000 3.8184 1.0000
9.4100 4.7359 1.0000
9.4200 4.5321 1.0000
9.4300 4.0861 1.0000
9.4400 4.1156 1.0000
9.4500 4.1872 1.0000
9.4600 2.9218 1.0000
9.4700 1.7634 1.0000
9.4800 1.6523 1.0000
9.4900 1.5451 1.0000
9.5000 1.4550 1.0000
9.5100 1.5897 1.0000
9.5200 2.3226 1.0000
9.5300 2.9621 1.0000
9.5400 3.4378 1.0000
9.5500 3.3248 1.0000
9.5600 2.5021 1.0000
9.5700 1.9731 1.0000
9.5800 1.6908 1.0000
9.5900 2.1742 1.0000
9.6000 3.1004 1.0000
9.6100 3.2822 1.0000
9.6200 3.1800 1.0000
9.6300 3.1623 1.0000
9.6400 3.1640 1.0000
9.6500 3.3403 1.0000
9.6600 3.5351 1.0000
9.6700 3.4436 1.0000
9.6800 3.3495 1.0000
9.6900 3.2450 1.0000
9.7000 2.9817 1.0000
9.7100 1.9670 1.0000
9.7200 1.6093 1.0000
9.7300 3.0782 1.0000
9.7400 3.8329 1.0000
9.7500 3.2883 1.0000
9.7600 2.7853 1.0000
9.7700 2.3344 1.0000
9.7800 1.9673 1.0000
9.7900 1.6730 1.0000
9.8000 1.5077 1.0000
9.8100 1.4197 1.0000
9.8200 1.9845 1.0000
9.8300 2.8092 1.0000
9.8400 2.2331 1.0000
9.8500 1.3186 1.0000
9.8600 1.3117 1.0000
9.8700 1.4106 1.0000
9.8800 1.2184 1.0000
9.8900 1.0581 1.0000
9.9000 1.3377 1.0000
9.9100 1.6302 1.0000
9.9200 1.9878 1.0000
9.9300 2.4918 1.0000
9.9400 3.4208 1.0000
9.9500 3.7082 1.0000
9.9600 2.7844 1.0000
9.9700 2.2248 1.0000
9.9800 2.1354 1.0000
9.9900 2.6221 1.0000
10.0000 3.6267 1.0000
10.0100 3.2212 1.0000
10.0200 1.9391 1.0000
10.0300 1.0502 1.0000
10.0400 0.3243 1.0000
10.0500 1.4327 1.0000
10.0600 3.0084 1.0000
10.0700 2.3578 1.0000
10.0800 1.4239 1.0000
10.0900 1.8394 1.0000
10.1000 2.2573 1.0000
10.1100 2.2721 1.0000
10.1200 2.3845 1.0000
10.1300 3.0193 1.0000
10.1400 3.1783 1.0000
10.1500 1.8924 1.0000
10.1600 1.4235 1.0000
10.1700 2.5562 1.0000
10.1800 3.4713 1.0000
10.1900 4.0956 1.0000
10.2000 3.5065 1.0000
10.2100 1.7888 1.0000
10.2200 1.1014 1.0000
10.2300 1.0776 1.0000
10.2400 2.4657 1.0000
10.2500 4.4637 1.0000
10.2600 3.5169 1.0000
10.2700 1.7803 1.0000
10.2800 1.7205 1.0000
10.2900 1.8923 1.0000
10.3000 2.1680 1.0000
10.3100 2.4062 1.0000
10.3200 1.9900 1.0000
10.3300 1.6735 1.0000
10.3400 1.9256 1.0000
10.3500 2.1572 1.0000
10.3600 2.3233 1.0000
10.3700 2.7400 1.0000
10.3800 3.6668 1.0000
10.3900 3.6990 1.0000
10.4000 2.4931 1.0000
10.4100 2.1781 1.0000
10.4200 2.7206 1.0000
10.4300 2.9477 1.0000
10.4400 2.9644 1.0000
10.4500 3.0455 1.0000
10.4600 3.1555 1.0000
10.4700 2.4485 1.0000
10.4800 1.5110 1.0000
10.4900 0.9913 1.0000
10.5000 0.5339 1.0000
10.5100 1.2444 1.0000
10.5200 1.9404 1.0000
10.5300 1.4563 1.0000
10.5400 1.2236 1.0000
10.5500 2.5274 1.0000
10.5600 3.2495 1.0000
10.5700 2.0328 1.0000
10.5800 1.5264 1.0000
10.5900 2.5237 1.0000
10.6000 2.7803 1.0000
10.6100 1.9755 1.0000
10.6200 1.5692 1.0000
10.6300 1.5596 1.0000
10.6400 1.5070 1.0000
10.6500 1.4247 1.0000
10.6600 1.6024 1.0000
10.6700 1.9015 1.0000
10.6800 1.9572 1.0000
10.6900 1.9408 1.0000
10.7000 2.9773 1.0000
10.7100 4.1828 1.0000
10.7200 2.6447 1.0000
10.7300 1.0580 1.0000
10.7400 1.5280 1.0000
10.7500 1.9568 1.0000
10.7600 2.1151 1.0000
10.7700 2.0777 1.0000
10.7800 1.3555 1.0000
10.7900 1.3496 1.0000
10.8000 2.9200 1.0000
10.8100 3.7062 1.0000
10.8200 3.3284 1.0000
10.8300 2.5970 1.0000
10.8400 1.5013 1.0000
10.8500 1.5233 1.0000
10.8600 2.3452 1.0000
10.8700 2.0014 1.0000
10.8800 1.0911 1.0000
10.8900 0.8002 1.0000
10.9000 0.7016 1.0000
10.9100 1.4590 1.0000
10.9200 2.3635 1.0000
10.9300 1.9219 1.0000
10.9400 1.4313 1.0000
10.9500 1.8561 1.0000
10.9600 2.3194 1.0000
10.9700 3.0558 1.0000
10.9800 3.4459 1.0000
10.9900 2.5629 1.0000
11.0000 2.0254 1.0000
11.0100 2.2790 1.0000
11.0200 2.6915 1.0000
11.0300 3.3482 1.0000
11.0400 3.4597 1.0000
11.0500 2.9906 1.0000
11.0600 2.4732 1.0000
11.0700 1.9201 1.0000
11.0800 1.9842 1.0000
11.0900 2.3599 1.0000
11.1000 2.6035 1.0000
11.1100 2.8042 1.0000
11.1200 2.7396 1.0000
11.1300 2.6262 1.0000
11.1400 2.1036 1.0000
11.1500 1.5571 1.0000
11.1600 1.1938 1.0000
11.1700 0.8611 1.0000
11.1800 0.7638 1.0000
11.1900 0.7830 1.0000
11.2000 1.2538 1.0000
11.2100 1.8840 1.0000
11.2200 2.8941 1.0000
11.2300 3.1603 1.0000
11.2400 2.2412 1.0000
11.2500 1.7059 1.0000
11.2600 1.5934 1.0000
11.2700 1.9132 1.0000
11.2800 2.5645 1.0000
11.2900 3.3293 1.0000
11.3000 4.1537 1.0000
11.3100 4.2309 1.0000
11.3200 4.0541 1.0000
11.3300 2.6442 1.0000
11.3400 0.9930 1.0000
11.3500 1.5984 1.0000
11.3600 2.3660 1.0000
11.3700 2.1333 1.0000
11.3800 1.9061 1.0000
11.3900 1.7259 1.0000
11.4000 1.6168 1.0000
11.4100 1.7977 1.0000
11.4200 1.9027 1.0000
11.4300 1.8191 1.0000
11.4400 1.6891 1.0000
11.4500 1.4826 1.0000
11.4600 1.2503 1.0000
11.4700 0.9886 1.0000
11.4800 1.4039 1.0000
11.4900 2.3566 1.0000
11.5000 2.4946 1.0000
11.5100 2.1893 1.0000
11.5200 2.7152 1.0000
11.5300 3.5368 1.0000
11.5400 2.9131 1.0000
11.5500 1.9890 1.0000
11.5600 1.4956 1.0000
11.5700 1.0497 1.0000
11.5800 1.6939 1.0000
11.5900 2.2936 1.0000
11.6000 2.4859 1.0000
11.6100 2.5350 1.0000
11.6200 1.9677 1.0000
11.6300 1.6104 1.0000
11.6400 1.7972 1.0000
11.6500 1.7806 1.0000
11.6600 1.4159 1.0000
11.6700 1.4268 1.0000
11.6800 1.8809 1.0000
11.6900 2.5987 1.0000
11.7000 3.5331 1.0000
11.7100 3.3931 1.0000
11.7200 2.6465 1.0000
11.7300 1.8475 1.0000
11.7400 1.0291 1.0000
11.7500 0.8803 1.0000
11.7600 0.8792 1.0000
11.7700 1.7160 1.0000
11.7800 2.6362 1.0000
11.7900 1.5296 1.0000
11.8000 0.5964 1.0000
11.8100 1.4272 1.0000
11.8200 2.1946 1.0000
11.8300 2.6737 1.0000
11.8400 2.9445 1.0000
11.8500 2.6526 1.0000
11.8600 2.2341 1.0000
11.8700 1.5907 1.0000
11.8800 1.8191 1.0000
11.8900 3.1114 1.0000
11.9000 2.9500 1.0000
11.9100 1.5531 1.0000
11.9200 1.4494 1.0000
11.9300 2.1031 1.0000
11.9400 2.6842 1.0000
11.9500 3.2372 1.0000
11.9600 2.8953 1.0000
11.9700 2.3448 1.0000
11.9800 2.4523 1.0000
11.9900 2.6320 1.0000
12.0000 2.1744 1.0000
12.0100 1.7339 1.0000
12.0200 1.5508 1.0000
12.0300 1.4764 1.0000
12.0400 1.9276 1.0000
12.0500 2.0464 1.0000
12.0600 1.2274 1.0000
12.0700 1.0218 1.0000
12.0800 1.9465 1.0000
12.0900 2.8309 1.0000
12.1000 3.6643 1.0000
12.1100 3.7046 1.0000
12.1200 3.0475 1.0000
12.1300 3.1273 1.0000
12.1400 3.6545 1.0000
12.1500 3.6090 1.0000
12.1600 3.3322 1.0000
12.1700 2.9236 1.0000
12.1800 2.4825 1.0000
12.1900 1.6173 1.0000
12.2000 0.7011 1.0000
12.2100 1.5080 1.0000
12.2200 2.2371 1.0000
12.2300 1.5928 1.0000
12.2400 1.1854 1.0000
12.2500 1.9940 1.0000
12.2600 2.5592 1.0000
12.2700 2.4068 1.0000
12.2800 2.2676 1.0000
12.2900 2.1537 1.0000
12.3000 2.3295 1.0000
12.3100 2.8838 1.0000
12.3200 2.6156 1.0000
12.3300 1.5990 1.0000
12.3400 1.6544 1.0000
12.3500 2.3843 1.0000
12.3600 2.0907 1.0000
12.3700 1.3667 1.0000
12.3800 1.2951 1.0000
12.3900 1.3927 1.0000
12.4000 1.7252 1.0000
12.4100 2.0884 1.0000
12.4200 1.4673 1.0000
12.4300 0.9271 1.0000
12.4400 1.9379 1.0000
12.4500 2.9492 1.0000
12.4600 3.9632 1.0000
12.4700 4.3263 1.0000
12.4800 2.6807 1.0000
12.4900 1.6168 1.0000
12.5000 1.7082 1.0000
12.5100 1.6224 1.0000
12.5200 1.2970 1.0000
12.5300 1.4470 1.0000
12.5400 2.0445 1.0000
12.5500 2.4530 1.0000
12.5600 2.7383 1.0000
12.5700 2.8814 1.0000
12.5800 2.9621 1.0000
12.5900 2.4036 1.0000
12.6000 1.6706 1.0000
12.6100 1.7327 1.0000
12.6200 1.9076 1.0000
12.6300 1.9195 1.0000
12.6400 1.9096 1.0000
12.6500 1.6273 1.0000
12.6600 1.4270 1.0000
12.6700 1.7065 1.0000
12.6800 1.7896 1.0000
12.6900 1.2382 1.0000
12.7000 1.0768 1.0000
12.7100 1.7202 1.0000
12.7200 1.9899 1.0000
12.7300 1.7363 1.0000
12.7400 1.5106 1.0000
12.7500 1.3120 1.0000
12.7600 1.8204 1.0000
12.7700 2.8064 1.0000
12.7800 2.4963 1.0000
12.7900 1.5957 1.0000
12.8000 0.8973 1.0000
12.8100 0.2569 1.0000
12.8200 1.1984 1.0000
12.8300 2.3820 1.0000
12.8400 1.9104 1.0000
12.8500 1.3910 1.0000
12.8600 1.3915 1.0000
12.8700 1.4038 1.0000
12.8800 1.4901 1.0000
12.8900 1.7690 1.0000
12.9000 2.7008 1.0000
12.9100 3.3085 1.0000
12.9200 3.2210 1.0000
12.9300 2.6798 1.0000
12.9400 1.4806 1.0000
12.9500 1.2431 1.0000
12.9600 1.9742 1.0000
12.9700 2.2192 1.0000
12.9800 2.1242 1.0000
12.9900 2.5404 1.0000
13.0000 3.1990 1.0000
13.0100 2.6329 1.0000
13.0200 1.6982 1.0000
13.0300 2.7432 1.0000
13.0400 4.1137 1.0000
13.0500 2.9743 1.0000
13.0600 1.7532 1.0000
13.0700 1.8405 1.0000
13.0800 1.8937 1.0000
13.0900 1.7171 1.0000
13.1000 1.6165 1.0000
13.1100 1.7857 1.0000
13.1200 1.9375 1.0000
13.1300 2.0503 1.0000
13.1400 1.8950 1.0000
13.1500 1.3371 1.0000
13.1600 1.1435 1.0000
13.1700 1.3296 1.0000
13.1800 1.4562 1.0000
13.1900 1.5397 1.0000
13.2000 1.3826 1.0000
13.2100 1.1071 1.0000
13.2200 1.7464 1.0000
13.2300 2.6744 1.0000
13.2400 2.3403 1.0000
13.2500 1.7842 1.0000
13.2600 2.1059 1.0000
13.2700 2.4377 1.0000
13.2800 1.3250 1.0000
13.2900 0.4449 1.0000
13.3000 1.2577 1.0000
13.3100 1.9397 1.0000
13.3200 2.1327 1.0000
13.3300 2.1867 1.0000
13.3400 1.9182 1.0000
13.3500 1.8198 1.0000
13.3600 1.9861 1.0000
13.3700 2.1616 1.0000
13.3800 2.3469 1.0000
13.3900 2.4317 1.0000
13.4000 2.4410 1.0000
13.4100 2.0795 1.0000
13.4200 1.5285 1.0000
13.4300 1.8688 1.0000
13.4400 2.5034 1.0000
13.4500 3.4015 1.0000
13.4600 4.3491 1.0000
13.4700 3.6416 1.0000
13.4800 2.8315 1.0000
13.4900 2.8210 1.0000
13.5000 2.8111 1.0000
13.5100 2.8061 1.0000
13.5200 2.7256 1.0000
13.5300 2.3471 1.0000
13.5400 2.5346 1.0000
13.5500 4.0905 1.0000
13.5600 4.5710 1.0000
13.5700 3.3169 1.0000
13.5800 2.2582 1.0000
13.5900 1.4174 1.0000
13.6000 1.9222 1.0000
13.6100 3.4713 1.0000
13.6200 3.0577 1.0000
13.6300 1.6017 1.0000
13.6400 1.7198 1.0000
13.6500 2.3815 1.0000
13.6600 2.0836 1.0000
13.6700 1.5939 1.0000
13.6800 1.7306 1.0000
13.6900 1.9154 1.0000
13.7000 1.8234 1.0000
13.7100 1.7126 1.0000
13.7200 1.4382 1.0000
13.7300 1.4313 1.0000
13.7400 2.5360 1.0000
13.7500 3.1959 1.0000
13.7600 2.7350 1.0000
13.7700 2.8251 1.0000
13.7800 3.8364 1.0000
13.7900 3.6530 1.0000
13.8000 2.0915 1.0000
13.8100 1.8102 1.0000
13.8200 2.5572 1.0000
13.8300 2.2275 1.0000
13.8400 1.3042 1.0000
13.8500 1.1203 1.0000
13.8600 1.2033 1.0000
13.8700 1.3642 1.0000
13.8800 1.5416 1.0000
13.8900 1.7263 1.0000
13.9000 1.9105 1.0000
13.9100 1.9064 1.0000
13.9200 1.8511 1.0000
13.9300 1.3107 1.0000
13.9400 0.9030 1.0000
13.9500 1.0778 1.0000
13.9600 1.3067 1.0000
13.9700 1.6776 1.0000
13.9800 1.7434 1.0000
13.9900 1.2803 1.0000
14.0000 1.0326 1.0000
14.0100 1.0419 1.0000
14.0200 1.2543 1.0000
14.0300 1.6356 1.0000
14.0400 1.6520 1.0000
14.0500 1.4598 1.0000
14.0600 1.6654 1.0000
14.0700 2.0210 1.0000
14.0800 1.3419 1.0000
14.0900 0.4304 1.0000
14.1000 0.9339 1.0000
14.1100 1.5832 1.0000
14.1200 1.7670 1.0000
14.1300 1.8771 1.0000
14.1400 1.2279 1.0000
14.1500 0.6941 1.0000
14.1600 0.6969 1.0000
14.1700 0.7962 1.0000
14.1800 1.1600 1.0000
14.1900 1.2628 1.0000
14.2000 0.8960 1.0000
14.2100 0.8171 1.0000
14.2200 1.0938 1.0000
14.2300 1.2679 1.0000
14.2400 1.3536 1.0000
14.2500 1.1024 1.0000
14.2600 0.6512 1.0000
14.2700 0.5885 1.0000
14.2800 0.6784 1.0000
14.2900 1.0664 1.0000
14.3000 1.5253 1.0000
14.3100 1.5655 1.0000
14.3200 1.5583 1.0000
14.3300 1.9385 1.0000
14.3400 2.3276 1.0000
14.3500 2.7678 1.0000
14.3600 2.9189 1.0000
14.3700 1.6445 1.0000
14.3800 0.8169 1.0000
14.3900 1.2692 1.0000
14.4000 1.9487 1.0000
14.4100 3.0521 1.0000
14.4200 2.9063 1.0000
14.4300 1.1640 1.0000
14.4400 0.9894 1.0000
14.4500 2.2096 1.0000
14.4600 2.7150 1.0000
14.4700 2.7810 1.0000
14.4800 2.6042 1.0000
14.4900 2.3280 1.0000
14.5000 2.2144 1.0000
14.5100 2.1416 1.0000
14.5200 2.3743 1.0000
14.5300 2.6449 1.0000
14.5400 2.0969 1.0000
14.5500 1.5977 1.0000
14.5600 1.9711 1.0000
14.5700 2.2399 1.0000
14.5800 1.9603 1.0000
14.5900 1.6565 1.0000
14.6000 1.2805 1.0000
14.6100 1.0674 1.0000
14.6200 1.1700 1.0000
14.6300 1.6279 1.0000
14.6400 2.5559 1.0000
14.6500 2.7113 1.0000
14.6600 2.1555 1.0000
14.6700 1.8798 1.0000
14.6800 1.7828 1.0000
14.6900 1.8822 1.0000
14.7000 2.0654 1.0000
14.7100 1.4473 1.0000
14.7200 0.6175 1.0000
14.7300 0.8356 1.0000
14.7400 1.1948 1.0000
14.7500 2.3142 1.0000
14.7600 3.3443 1.0000
14.7700 2.6722 1.0000
14.7800 2.0187 1.0000
14.7900 1.4700 1.0000
14.8000 1.1426 1.0000
14.8100 1.5087 1.0000
14.8200 1.9667 1.0000
14.8300 2.6094 1.0000
14.8400 3.2252 1.0000
14.8500 3.8040 1.0000
14.8600 4.3489 1.0000
14.8700 4.8616 1.0000
14.8800 4.6751 1.0000
14.8900 4.0271 1.0000
14.9000 3.2070 1.0000
14.9100 2.3105 1.0000
14.9200 2.4971 1.0000
14.9300 2.9844 1.0000
14.9400 3.0338 1.0000
14.9500 3.0194 1.0000
14.9600 2.6884 1.0000
14.9700 2.3320 1.0000
14.9800 1.7389 1.0000
14.9900 1.2816 1.0000
15.0000 1.6376 1.0000
15.0100 1.9971 1.0000
15.0200 2.3681 1.0000
15.0300 2.5878 1.0000
15.0400 2.4907 1.0000
15.0500 2.7458 1.0000
15.0600 3.4999 1.0000
15.0700 3.4561 1.0000
15.0800 2.6262 1.0000
15.0900 2.5111 1.0000
15.1000 2.8848 1.0000
15.1100 2.2388 1.0000
15.1200 1.1218 1.0000
15.1300 1.4406 1.0000
15.1400 2.1780 1.0000
15.1500 1.8885 1.0000
15.1600 1.4377 1.0000
15.1700 1.3359 1.0000
15.1800 1.2666 1.0000
15.1900 1.5374 1.0000
15.2000 1.7834 1.0000
15.2100 1.8702 1.0000
15.2200 1.7501 1.0000
15.2300 0.9168 1.0000
15.2400 0.4671 1.0000
15.2500 0.8512 1.0000
15.2600 1.1480 1.0000
15.2700 1.3166 1.0000
15.2800 1.7157 1.0000
15.2900 2.3497 1.0000
15.3000 1.9717 1.0000
15.3100 0.8773 1.0000
15.3200 1.3974 1.0000
15.3300 2.6926 1.0000
15.3400 2.3548 1.0000
15.3500 1.5175 1.0000
15.3600 1.0071 1.0000
15.3700 0.5517 1.0000
15.3800 1.2157 1.0000
15.3900 1.9368 1.0000
15.4000 2.4802 1.0000
15.4100 2.8990 1.0000
15.4200 2.4556 1.0000
15.4300 2.1059 1.0000
15.4400 2.0953 1.0000
15.4500 1.8074 1.0000
15.4600 0.8923 1.0000
15.4700 0.5270 1.0000
15.4800 0.9977 1.0000
15.4900 1.1413 1.0000
15.5000 0.9403 1.0000
15.5100 1.1448 1.0000
15.5200 1.6468 1.0000
15.5300 1.4271 1.0000
15.5400 0.8474 1.0000
15.5500 0.9796 1.0000
15.5600 1.3398 1.0000
15.5700 2.3064 1.0000
15.5800 3.3822 1.0000
15.5900 2.8654 1.0000
15.6000 2.2472 1.0000
15.6100 1.7929 1.0000
15.6200 1.3167 1.0000
15.6300 0.6777 1.0000
15.6400 0.3433 1.0000
15.6500 1.1692 1.0000
15.6600 1.9127 1.0000
15.6700 2.4624 1.0000
15.6800 2.3368 1.0000
15.6900 1.1473 1.0000
15.7000 0.6622 1.0000
15.7100 0.9452 1.0000
15.7200 1.4832 1.0000
15.7300 2.2147 1.0000
15.7400 2.0968 1.0000
15.7500 1.5388 1.0000
15.7600 1.3267 1.0000
15.7700 1.2306 1.0000
15.7800 1.6018 1.0000
15.7900 2.0628 1.0000
15.8000 1.3391 1.0000
15.8100 0.5564 1.0000
15.8200 1.3742 1.0000
15.8300 2.0518 1.0000
15.8400 1.5883 1.0000
15.8500 1.4049 1.0000
15.8600 2.3460 1.0000
15.8700 3.2526 1.0000
15.8800 4.0748 1.0000
15.8900 3.8120 1.0000
15.9000 1.7778 1.0000
15.9100 1.0157 1.0000
15.9200 1.6885 1.0000
15.9300 1.9132 1.0000
15.9400 1.7859 1.0000
15.9500 2.0980 1.0000
15.9600 2.6465 1.0000
15.9700 2.4580 1.0000
15.9800 2.0110 1.0000
15.9900 1.5566 1.0000
16.0000 1.1007 1.0000
16.0100 1.8163 1.0000
16.0200 2.6180 1.0000
16.0300 2.0587 1.0000
16.0400 1.5479 1.0000
16.0500 1.4685 1.0000
16.0600 1.3851 1.0000
16.0700 1.2847 1.0000
16.0800 1.3140 1.0000
16.0900 1.6746 1.0000
16.1000 1.8699 1.0000
16.1100 1.7853 1.0000
16.1200 1.4860 1.0000
16.1300 0.9361 1.0000
16.1400 0.7980 1.0000
16.1500 0.9946 1.0000
16.1600 1.1199 1.0000
16.1700 1.2054 1.0000
16.1800 1.6962 1.0000
16.1900 2.3353 1.0000
16.2000 2.0849 1.0000
16.2100 1.6420 1.0000
16.2200 1.5857 1.0000
16.2300 1.5662 1.0000
16.2400 1.3820 1.0000
16.2500 1.1893 1.0000
16.2600 0.9131 1.0000
16.2700 0.7965 1.0000
16.2800 1.3940 1.0000
16.2900 1.8417 1.0000
16.3000 1.8901 1.0000
16.3100 1.7569 1.0000
16.3200 1.3049 1.0000
16.3300 0.8885 1.0000
16.3400 0.5148 1.0000
16.3500 0.8882 1.0000
16.3600 1.8899 1.0000
16.3700 1.9194 1.0000
16.3800 1.3858 1.0000
16.3900 1.2991 1.0000
16.4000 1.3831 1.0000
16.4100 0.8029 1.0000
16.4200 0.0705 1.0000
16.4300 1.0633 1.0000
16.4400 2.2398 1.0000
16.4500 1.3433 1.0000
16.4600 0.5107 1.0000
16.4700 0.5150 1.0000
16.4800 0.5026 1.0000
16.4900 0.4108 1.0000
16.5000 0.4618 1.0000
16.5100 0.9097 1.0000
16.5200 1.3665 1.0000
16.5300 1.8393 1.0000
16.5400 1.7345 1.0000
16.5500 0.9082 1.0000
16.5600 0.4729 1.0000
16.5700 0.3779 1.0000
16.5800 0.3412 1.0000
16.5900 0.3396 1.0000
16.6000 1.0675 1.0000
16.6100 2.0862 1.0000
16.6200 2.1320 1.0000
16.6300 1.9424 1.0000
16.6400 1.7589 1.0000
16.6500 1.5762 1.0000
16.6600 1.5719 1.0000
16.6700 1.5629 1.0000
16.6800 1.4643 1.0000
16.6900 1.5814 1.0000
16.7000 2.7841 1.0000
16.7100 3.4239 1.0000
16.7200 2.4264 1.0000
16.7300 1.6730 1.0000
16.7400 1.3814 1.0000
16.7500 1.3396 1.0000
16.7600 1.6208 1.0000
16.7700 1.6107 1.0000
16.7800 1.3382 1.0000
16.7900 1.7899 1.0000
16.8000 2.6923 1.0000
16.8100 2.5676 1.0000
16.8200 2.0162 1.0000
16.8300 2.1575 1.0000
16.8400 2.4757 1.0000
16.8500 2.4778 1.0000
16.8600 2.4396 1.0000
16.8700 2.7346 1.0000
16.8800 2.9538 1.0000
16.8900 2.0103 1.0000
16.9000 1.3019 1.0000
16.9100 1.8534 1.0000
16.9200 2.1817 1.0000
16.9300 1.8308 1.0000
16.9400 1.5897 1.0000
16.9500 1.5643 1.0000
16.9600 1.4378 1.0000
16.9700 1.1759 1.0000
16.9800 1.0974 1.0000
16.9900 1.1897 1.0000
17.0000 0.9455 1.0000
17.0100 0.4843 1.0000
17.0200 0.6633 1.0000
17.0300 1.1192 1.0000
17.0400 1.6495 1.0000
17.0500 2.1997 1.0000
17.0600 1.9516 1.0000
17.0700 1.5929 1.0000
17.0800 1.4856 1.0000
17.0900 1.4242 1.0000
17.1000 1.9710 1.0000
17.1100 2.5334 1.0000
17.1200 3.1854 1.0000
17.1300 3.5228 1.0000
17.1400 2.8580 1.0000
17.1500 2.3532 1.0000
17.1600 2.1748 1.0000
17.1700 2.0809 1.0000
17.1800 2.1042 1.0000
17.1900 2.3528 1.0000
17.2000 2.8186 1.0000
17.2100 2.1708 1.0000
17.2200 0.7788 1.0000
17.2300 0.7967 1.0000
17.2400 1.4493 1.0000
17.2500 1.4470 1.0000
17.2600 1.2599 1.0000
17.2700 1.3905 1.0000
17.2800 1.5686 1.0000
17.2900 1.5705 1.0000
17.3000 1.5655 1.0000
17.3100 1.5701 1.0000
17.3200 1.6008 1.0000
17.3300 1.7923 1.0000
17.3400 1.8334 1.0000
17.3500 1.3723 1.0000
17.3600 1.0280 1.0000
17.3700 0.9312 1.0000
17.3800 0.9100 1.0000
17.3900 0.9972 1.0000
17.4000 1.0882 1.0000
17.4100 1.1830 1.0000
17.4200 1.7102 1.0000
17.4300 2.5368 1.0000
17.4400 1.9870 1.0000
17.4500 0.7929 1.0000
17.4600 0.6645 1.0000
17.4700 0.8522 1.0000
17.4800 1.7458 1.0000
17.4900 2.7530 1.0000
17.5000 3.1589 1.0000
17.5100 3.4644 1.0000
17.5200 2.1643 1.0000
17.5300 1.1571 1.0000
17.5400 2.0791 1.0000
17.5500 2.6536 1.0000
17.5600 2.0102 1.0000
17.5700 1.4003 1.0000
17.5800 0.8641 1.0000
17.5900 0.6150 1.0000
17.6000 0.7925 1.0000
17.6100 0.8793 1.0000
17.6200 0.8727 1.0000
17.6300 1.0936 1.0000
17.6400 1.4774 1.0000
17.6500 1.3472 1.0000
17.6600 0.9670 1.0000
17.6700 0.8728 1.0000
17.6800 0.8675 1.0000
17.6900 1.4293 1.0000
17.7000 2.0887 1.0000
17.7100 1.6885 1.0000
17.7200 1.2364 1.0000
17.7300 1.1374 1.0000
17.7400 1.1518 1.0000
17.7500 1.9723 1.0000
17.7600 2.3249 1.0000
17.7700 0.9543 1.0000
17.7800 0.1671 1.0000
17.7900 0.7176 1.0000
17.8000 1.3824 1.0000
17.8100 2.2233 1.0000
17.8200 2.8272 1.0000
17.8300 3.1782 1.0000
17.8400 2.5893 1.0000
17.8500 1.3030 1.0000
17.8600 0.8719 1.0000
17.8700 0.8731 1.0000
17.8800 1.3531 1.0000
17.8900 1.9891 1.0000
17.9000 1.9396 1.0000
17.9100 1.7638 1.0000
17.9200 1.1464 1.0000
17.9300 0.5487 1.0000
17.9400 1.9422 1.0000
17.9500 3.1118 1.0000
17.9600 2.5579 1.0000
17.9700 2.0030 1.0000
17.9800 1.4446 1.0000
17.9900 1.1860 1.0000
18.0000 1.6429 1.0000
18.0100 2.0304 1.0000
18.0200 2.3072 1.0000
18.0300 2.4430 1.0000
18.0400 2.4232 1.0000
18.0500 2.0588 1.0000
18.0600 1.4298 1.0000
18.0700 1.6390 1.0000
18.0800 2.2883 1.0000
18.0900 2.3800 1.0000
18.1000 2.2819 1.0000
18.1100 2.0428 1.0000
18.1200 1.7761 1.0000
18.1300 1.2363 1.0000
18.1400 0.7004 1.0000
18.1500 1.7178 1.0000
18.1600 2.6464 1.0000
18.1700 2.8304 1.0000
18.1800 2.8161 1.0000
18.1900 1.9915 1.0000
18.2000 1.3997 1.0000
18.2100 1.3872 1.0000
18.2200 1.4866 1.0000
18.2300 1.7710 1.0000
18.2400 1.9694 1.0000
18.2500 2.0695 1.0000
18.2600 1.5473 1.0000
18.2700 0.5306 1.0000
18.2800 0.8231 1.0000
18.2900 1.8289 1.0000
18.3000 2.0361 1.0000
18.3100 1.9589 1.0000
18.3200 1.8602 1.0000
18.3300 1.7570 1.0000
18.3400 2.5109 1.0000
18.3500 3.3288 1.0000
18.3600 2.5076 1.0000
18.3700 1.8111 1.0000
18.3800 2.2621 1.0000
18.3900 2.6098 1.0000
18.4000 2.5113 1.0000
18.4100 2.4186 1.0000
18.4200 2.3410 1.0000
18.4300 2.3860 1.0000
18.4400 2.6410 1.0000
18.4500 2.5721 1.0000
18.4600 2.1206 1.0000
18.4700 2.1207 1.0000
18.4800 2.4923 1.0000
18.4900 2.3354 1.0000
18.5000 1.8798 1.0000
18.5100 1.9563 1.0000
18.5200 2.2307 1.0000
18.5300 1.8983 1.0000
18.5400 1.4320 1.0000
18.5500 1.5517 1.0000
18.5600 1.7298 1.0000
18.5700 2.4824 1.0000
18.5800 3.1098 1.0000
18.5900 2.4600 1.0000
18.6000 1.8785 1.0000
18.6100 1.6090 1.0000
18.6200 1.3898 1.0000
18.6300 1.3069 1.0000
18.6400 1.3128 1.0000
18.6500 1.4768 1.0000
18.6600 1.3630 1.0000
18.6700 0.9100 1.0000
18.6800 0.5992 1.0000
18.6900 0.4093 1.0000
18.7000 0.6354 1.0000
18.7100 1.1053 1.0000
18.7200 1.7714 1.0000
18.7300 2.5137 1.0000
18.7400 2.7310 1.0000
18.7500 2.8257 1.0000
18.7600 2.8142 1.0000
18.7700 2.7911 1.0000
18.7800 1.9774 1.0000
18.7900 1.2307 1.0000
18.8000 1.3248 1.0000
18.8100 1.3859 1.0000
18.8200 1.2876 1.0000
18.8300 1.3606 1.0000
18.8400 1.9175 1.0000
18.8500 2.1150 1.0000
18.8600 1.6492 1.0000
18.8700 1.7489 1.0000
18.8800 2.5633 1.0000
18.8900 2.8068 1.0000
18.9000 2.5474 1.0000
18.9100 2.3027 1.0000
18.9200 2.0669 1.0000
18.9300 2.3116 1.0000
18.9400 2.7506 1.0000
18.9500 2.7410 1.0000
18.9600 2.6207 1.0000
18.9700 2.4415 1.0000
18.9800 2.2553 1.0000
18.9900 1.9086 1.0000
19.0000 1.6651 1.0000
19.0100 2.7744 1.0000
19.0200 3.7002 1.0000
19.0300 3.6812 1.0000
19.0400 3.3210 1.0000
19.0500 1.9528 1.0000
19.0600 1.0841 1.0000
19.0700 1.1720 1.0000
19.0800 1.3825 1.0000
19.0900 1.7534 1.0000
19.1000 1.5893 1.0000
19.1100 0.9382 1.0000
19.1200 0.8107 1.0000
19.1300 1.0133 1.0000
19.1400 1.1335 1.0000
19.1500 1.2189 1.0000
19.1600 1.4528 1.0000
19.1700 1.7252 1.0000
19.1800 1.8368 1.0000
19.1900 1.9272 1.0000
19.2000 1.9366 1.0000
19.2100 1.9129 1.0000
19.2200 1.4384 1.0000
19.2300 1.1228 1.0000
19.2400 1.6781 1.0000
19.2500 1.9894 1.0000
19.2600 1.5467 1.0000
19.2700 1.5214 1.0000
19.2800 2.3262 1.0000
19.2900 2.4398 1.0000
19.3000 1.6171 1.0000
19.3100 1.3138 1.0000
19.3200 1.4998 1.0000
19.3300 1.3497 1.0000
19.3400 0.9801 1.0000
19.3500 0.8675 1.0000
19.3600 0.8676 1.0000
19.3700 1.2283 1.0000
19.3800 1.6877 1.0000
19.3900 1.4310 1.0000
19.4000 1.0723 1.0000
19.4100 1.5872 1.0000
19.4200 2.0872 1.0000
19.4300 1.8053 1.0000
19.4400 1.5695 1.0000
19.4500 1.6036 1.0000
19.4600 1.5800 1.0000
19.4700 1.3702 1.0000
19.4800 1.3175 1.0000
19.4900 1.5896 1.0000
19.5000 1.7136 1.0000
19.5100 1.6298 1.0000
19.5200 1.8610 1.0000
19.5300 2.3994 1.0000
19.5400 2.1839 1.0000
19.5500 1.4584 1.0000
19.5600 1.8549 1.0000
19.5700 2.7633 1.0000
19.5800 2.2572 1.0000
19.5900 1.3447 1.0000
19.6000 1.3828 1.0000
19.6100 1.5668 1.0000
19.6200 1.5815 1.0000
19.6300 1.6057 1.0000
19.6400 1.9735 1.0000
19.6500 2.2645 1.0000
19.6600 2.0729 1.0000
19.6700 1.7804 1.0000
19.6800 1.1452 1.0000
19.6900 0.7634 1.0000
19.7000 0.9257 1.0000
19.7100 1.3252 1.0000
19.7200 2.0692 1.0000
19.7300 2.2086 1.0000
19.7400 1.7382 1.0000
19.7500 1.3325 1.0000
19.7600 0.9722 1.0000
19.7700 1.7798 1.0000
19.7800 3.1414 1.0000
19.7900 2.6280 1.0000
19.8000 1.5493 1.0000
19.8100 1.5527 1.0000
19.8200 1.7344 1.0000
19.8300 2.3687 1.0000
19.8400 2.9514 1.0000
19.8500 1.6439 1.0000
19.8600 0.5417 1.0000
19.8700 0.8273 1.0000
19.8800 1.0723 1.0000
19.8900 1.1730 1.0000
19.9000 1.1525 1.0000
19.9100 0.8614 1.0000
19.9200 0.7260 1.0000
19.9300 0.8247 1.0000
19.9400 0.8785 1.0000
19.9500 0.8853 1.0000
19.9600 1.4592 1.0000
19.9700 2.4445 1.0000
19.9800 2.0400 1.0000
19.9900 0.9503 1.0000
20.0000 0.8314 1.0000
20.0100 1.0192 1.0000
20.0200 1.1985 1.0000
20.0300 1.3762 1.0000
20.0400 1.8149 1.0000
20.0500 2.2563 1.0000
20.0600 2.2553 1.0000
20.0700 2.3013 1.0000
20.0800 2.6901 1.0000
20.0900 2.7040 1.0000
20.1000 1.3131 1.0000
20.1100 0.5332 1.0000
20.1200 1.1740 1.0000
20.1300 1.3534 1.0000
20.1400 0.8137 1.0000
20.1500 1.1478 1.0000
20.1600 2.4244 1.0000
20.1700 2.6045 1.0000
20.1800 1.9614 1.0000
20.1900 1.6929 1.0000
20.2000 1.6163 1.0000
20.2100 1.3790 1.0000
20.2200 1.0886 1.0000
20.2300 1.4169 1.0000
20.2400 1.8618 1.0000
20.2500 1.8330 1.0000
20.2600 1.7871 1.0000
20.2700 2.5337 1.0000
20.2800 3.1327 1.0000
20.2900 2.5618 1.0000
20.3000 1.9944 1.0000
20.3100 1.4406 1.0000
20.3200 1.0749 1.0000
20.3300 1.1643 1.0000
20.3400 1.1518 1.0000
20.3500 0.9747 1.0000
20.3600 0.9218 1.0000
20.3700 1.0075 1.0000
20.3800 0.9435 1.0000
20.3900 0.7633 1.0000
20.4000 1.0508 1.0000
20.4100 1.5869 1.0000
20.4200 1.7290 1.0000
20.4300 1.7348 1.0000
20.4400 1.5830 1.0000
20.4500 1.3996 1.0000
20.4600 1.0578 1.0000
20.4700 0.7062 1.0000
20.4800 0.6042 1.0000
20.4900 0.5604 1.0000
20.5000 1.0200 1.0000
20.5100 1.3561 1.0000
20.5200 1.1780 1.0000
20.5300 1.3903 1.0000
20.5400 2.5877 1.0000
20.5500 2.8917 1.0000
20.5600 1.6998 1.0000
20.5700 0.9723 1.0000
20.5800 0.7811 1.0000
20.5900 0.8955 1.0000
20.6000 1.2558 1.0000
20.6100 1.7486 1.0000
20.6200 2.3145 1.0000
20.6300 2.8739 1.0000
20.6400 3.4308 1.0000
20.6500 2.9101 1.0000
20.6600 2.1601 1.0000
20.6700 2.2748 1.0000
20.6800 2.4657 1.0000
20.6900 1.8174 1.0000
20.7000 1.2573 1.0000
20.7100 1.5365 1.0000
20.7200 1.9138 1.0000
20.7300 2.7219 1.0000
20.7400 3.0311 1.0000
20.7500 2.0272 1.0000
20.7600 1.3944 1.0000
20.7700 1.4056 1.0000
20.7800 1.3666 1.0000
20.7900 1.2676 1.0000
20.8000 1.3224 1.0000
20.8100 1.5053 1.0000
20.8200 1.8630 1.0000
20.8300 2.3209 1.0000
20.8400 1.9196 1.0000
20.8500 1.1941 1.0000
20.8600 1.0592 1.0000
20.8700 1.0573 1.0000
20.8800 1.3795 1.0000
20.8900 1.7352 1.0000
20.9000 1.3755 1.0000
20.9100 1.0208 1.0000
20.9200 0.7451 1.0000
20.9300 0.5348 1.0000
20.9400 0.6293 1.0000
20.9500 0.8200 1.0000
20.9600 1.2748 1.0000
20.9700 1.4717 1.0000
20.9800 1.2041 1.0000
20.9900 0.9726 1.0000
21.0000 0.7858 1.0000
21.0100 0.5026 1.0000
21.0200 0.1364 1.0000
21.0300 0.0568 1.0000
21.0400 0.1472 1.0000
21.0500 0.4452 1.0000
21.0600 0.8249 1.0000
21.0700 0.8148 1.0000
21.0800 0.7118 1.0000
21.0900 0.7850 1.0000
21.1000 0.8782 1.0000
21.1100 0.8744 1.0000
21.1200 0.8695 1.0000
21.1300 0.8655 1.0000
21.1400 0.8621 1.0000
21.1500 0.8616 1.0000
21.1600 1.0301 1.0000
21.1700 1.6837 1.0000
21.1800 2.0102 1.0000
21.1900 1.7254 1.0000
21.2000 1.5262 1.0000
21.2100 1.4367 1.0000
21.2200 1.2013 1.0000
21.2300 0.8359 1.0000
21.2400 1.0501 1.0000
21.2500 1.6210 1.0000
21.2600 1.9061 1.0000
21.2700 2.0738 1.0000
21.2800 2.1806 1.0000
21.2900 2.2721 1.0000
21.3000 2.0390 1.0000
21.3100 1.7655 1.0000
21.3200 1.5733 1.0000
21.3300 1.3576 1.0000
21.3400 0.8048 1.0000
21.3500 0.5330 1.0000
21.3600 1.7381 1.0000
21.3700 2.4570 1.0000
21.3800 1.7172 1.0000
21.3900 1.4740 1.0000
21.4000 2.1944 1.0000
21.4100 2.4042 1.0000
21.4200 1.9379 1.0000
21.4300 1.5295 1.0000
21.4400 1.1743 1.0000
21.4500 1.1490 1.0000
21.4600 1.3342 1.0000
21.4700 1.2592 1.0000
21.4800 1.0731 1.0000
21.4900 1.1116 1.0000
21.5000 1.2095 1.0000
21.5100 1.0628 1.0000
21.5200 0.8830 1.0000
21.5300 0.7867 1.0000
21.5400 0.6928 1.0000
21.5500 0.5965 1.0000
21.5600 0.5425 1.0000
21.5700 0.7261 1.0000
21.5800 0.9751 1.0000
21.5900 1.4292 1.0000
21.6000 1.7932 1.0000
21.6100 1.9753 1.0000
21.6200 1.8121 1.0000
21.6300 1.1757 1.0000
21.6400 0.8671 1.0000
21.6500 0.8710 1.0000
21.6600 0.7624 1.0000
21.6700 0.5795 1.0000
21.6800 0.3952 1.0000
21.6900 0.2101 1.0000
21.7000 1.2577 1.0000
21.7100 2.6483 1.0000
21.7200 2.3510 1.0000
21.7300 1.8071 1.0000
21.7400 1.8633 1.0000
21.7500 1.9201 1.0000
21.7600 1.5685 1.0000
21.7700 1.2910 1.0000
21.7800 1.4585 1.0000
21.7900 1.4580 1.0000
21.8000 0.9046 1.0000
21.8100 0.5568 1.0000
21.8200 0.6398 1.0000
21.8300 0.8796 1.0000
21.8400 1.3419 1.0000
21.8500 1.3876 1.0000
21.8600 1.0223 1.0000
21.8700 0.7703 1.0000
21.8800 0.5958 1.0000
21.8900 0.9786 1.0000
21.9000 1.6190 1.0000
21.9100 1.3324 1.0000
21.9200 0.7750 1.0000
21.9300 1.3282 1.0000
21.9400 2.0561 1.0000
21.9500 1.7320 1.0000
21.9600 1.3544 1.0000
21.9700 0.9124 1.0000
21.9800 0.7017 1.0000
21.9900 1.9794 1.0000
22.0000 2.6819 1.0000
22.0100 1.3987 1.0000
22.0200 0.6086 1.0000
22.0300 0.8923 1.0000
22.0400 1.2045 1.0000
22.0500 1.5585 1.0000
22.0600 1.8285 1.0000
22.0700 2.0129 1.0000
22.0800 1.5533 1.0000
22.0900 0.6371 1.0000
22.1000 0.6470 1.0000
22.1100 1.1022 1.0000
22.1200 1.0033 1.0000
22.1300 0.7345 1.0000
22.1400 0.9310 1.0000
22.1500 1.2060 1.0000
22.1600 1.7272 1.0000
22.1700 2.2401 1.0000
22.1800 2.1519 1.0000
22.1900 2.0416 1.0000
22.2000 1.7785 1.0000
22.2100 1.6515 1.0000
22.2200 2.0182 1.0000
22.2300 2.2172 1.0000
22.2400 2.0364 1.0000
22.2500 1.5272 1.0000
22.2600 0.5181 1.0000
22.2700 0.1783 1.0000
22.2800 0.5449 1.0000
22.2900 0.7547 1.0000
22.3000 0.8495 1.0000
22.3100 0.7570 1.0000
22.3200 0.5709 1.0000
22.3300 0.3173 1.0000
22.3400 0.0421 1.0000
22.3500 1.0194 1.0000
22.3600 2.2228 1.0000
22.3700 1.1704 1.0000
22.3800 0.0178 1.0000
22.3900 0.6685 1.0000
22.4000 1.2946 1.0000
22.4100 1.7366 1.0000
22.4200 1.9540 1.0000
22.4300 1.3139 1.0000
22.4400 1.0302 1.0000
22.4500 1.5864 1.0000
22.4600 1.8891 1.0000
22.4700 1.7919 1.0000
22.4800 2.1932 1.0000
22.4900 3.1387 1.0000
22.5000 3.2160 1.0000
22.5100 2.6335 1.0000
22.5200 1.7759 1.0000
22.5300 0.7756 1.0000
22.5400 0.6548 1.0000
22.5500 0.8295 1.0000
22.5600 1.1186 1.0000
22.5700 1.4297 1.0000
22.5800 1.9373 1.0000
22.5900 2.4396 1.0000
22.6000 1.8865 1.0000
22.6100 1.3746 1.0000
22.6200 1.1990 1.0000
22.6300 1.0210 1.0000
22.6400 0.8341 1.0000
22.6500 0.7872 1.0000
22.6600 1.0841 1.0000
22.6700 1.3666 1.0000
22.6800 1.6255 1.0000
22.6900 1.6265 1.0000
22.7000 1.3361 1.0000
22.7100 1.0035 1.0000
22.7200 0.6377 1.0000
22.7300 0.5218 1.0000
22.7400 0.5405 1.0000
22.7500 0.7454 1.0000
22.7600 1.0157 1.0000
22.7700 0.6001 1.0000
22.7800 0.0443 1.0000
22.7900 0.4251 1.0000
22.8000 0.8820 1.0000
22.8100 0.8730 1.0000
22.8200 0.8563 1.0000
22.8300 0.7703 1.0000
22.8400 0.7344 1.0000
22.8500 0.9116 1.0000
22.8600 1.0149 1.0000
22.8700 0.9293 1.0000
22.8800 0.8465 1.0000
22.8900 0.7682 1.0000
22.9000 0.6319 1.0000
22.9100 0.4277 1.0000
22.9200 0.4386 1.0000
22.9300 0.6245 1.0000
22.9400 0.6341 1.0000
22.9500 0.5451 1.0000
22.9600 1.1874 1.0000
22.9700 2.0978 1.0000
22.9800 2.0420 1.0000
22.9900 1.7765 1.0000
23.0000 2.0899 1.0000
23.0100 2.4583 1.0000
23.0200 2.3558 1.0000
23.0300 2.1792 1.0000
23.0400 1.2733 1.0000
23.0500 0.5844 1.0000
23.0600 0.8694 1.0000
23.0700 1.1473 1.0000
23.0800 1.4062 1.0000
23.0900 1.6965 1.0000
23.1000 2.0416 1.0000
23.1100 1.7018 1.0000
23.1200 0.5339 1.0000
23.1300 0.4554 1.0000
23.1400 1.2943 1.0000
23.1500 1.3649 1.0000
23.1600 0.9900 1.0000
23.1700 1.0196 1.0000
23.1800 1.2040 1.0000
23.1900 1.4513 1.0000
23.2000 1.7131 1.0000
23.2100 1.5686 1.0000
23.2200 1.3806 1.0000
23.2300 1.2985 1.0000
23.2400 1.2812 1.0000
23.2500 1.9650 1.0000
23.2600 2.3634 1.0000
23.2700 1.4054 1.0000
23.2800 0.6035 1.0000
23.2900 0.2368 1.0000
23.3000 0.2282 1.0000
23.3100 0.8728 1.0000
23.3200 1.1467 1.0000
23.3300 0.9572 1.0000
23.3400 0.8190 1.0000
23.3500 0.7255 1.0000
23.3600 0.8071 1.0000
23.3700 0.9938 1.0000
23.3800 1.1714 1.0000
23.3900 1.3452 1.0000
23.4000 1.4587 1.0000
23.4100 1.5575 1.0000
23.4200 2.1345 1.0000
23.4300 2.7676 1.0000
23.4400 2.2406 1.0000
23.4500 1.7518 1.0000
23.4600 1.9471 1.0000
23.4700 2.0332 1.0000
23.4800 1.5681 1.0000
23.4900 1.1751 1.0000
23.5000 0.9920 1.0000
23.5100 1.3156 1.0000
23.5200 2.5981 1.0000
23.5300 2.9675 1.0000
23.5400 2.1544 1.0000
23.5500 2.2001 1.0000
23.5600 3.0196 1.0000
23.5700 3.0486 1.0000
23.5800 2.5848 1.0000
23.5900 2.6392 1.0000
23.6000 2.9091 1.0000
23.6100 2.7630 1.0000
23.6200 2.5106 1.0000
23.6300 2.0707 1.0000
23.6400 1.6069 1.0000
23.6500 1.7603 1.0000
23.6600 1.8685 1.0000
23.6700 1.1378 1.0000
23.6800 0.5073 1.0000
23.6900 0.4151 1.0000
23.7000 0.5054 1.0000
23.7100 1.1516 1.0000
23.7200 1.4230 1.0000
23.7300 0.9573 1.0000
23.7400 1.0062 1.0000
23.7500 1.7444 1.0000
23.7600 2.0546 1.0000
23.7700 1.9657 1.0000
23.7800 1.4248 1.0000
23.7900 0.5920 1.0000
23.8000 0.9787 1.0000
23.8100 1.8937 1.0000
23.8200 1.7968 1.0000
23.8300 1.4275 1.0000
23.8400 0.9058 1.0000
23.8500 0.3630 1.0000
23.8600 1.5156 1.0000
23.8700 2.6103 1.0000
23.8800 1.8684 1.0000
23.8900 1.3460 1.0000
23.9000 2.0822 1.0000
23.9100 2.6177 1.0000
23.9200 2.5128 1.0000
23.9300 2.2036 1.0000
23.9400 1.4775 1.0000
23.9500 1.3247 1.0000
23.9600 1.9673 1.0000
23.9700 2.4666 1.0000
23.9800 2.8277 1.0000
23.9900 2.3731 1.0000
24.0000 1.3728 1.0000
24.0100 1.3052 1.0000
24.0200 1.6580 1.0000
24.0300 1.2402 1.0000
24.0400 0.6044 1.0000
24.0500 1.8853 1.0000
24.0600 3.4536 1.0000
24.0700 2.6267 1.0000
24.0800 1.7182 1.0000
24.0900 1.1720 1.0000
24.1000 0.7938 1.0000
24.1100 1.4478 1.0000
24.1200 2.1152 1.0000
24.1300 2.8271 1.0000
24.1400 2.9607 1.0000
24.1500 1.8669 1.0000
24.1600 1.2993 1.0000
24.1700 1.4877 1.0000
24.1800 1.5382 1.0000
24.1900 1.4513 1.0000
24.2000 1.6331 1.0000
24.2100 2.0012 1.0000
24.2200 1.4865 1.0000
24.2300 0.5581 1.0000
24.2400 1.6089 1.0000
24.2500 3.2476 1.0000
24.2600 3.0290 1.0000
24.2700 2.5108 1.0000
24.2800 2.5746 1.0000
24.2900 2.6484 1.0000
24.3000 2.2636 1.0000
24.3100 2.1713 1.0000
24.3200 4.0097 1.0000
24.3300 5.2973 1.0000
24.3400 4.6507 1.0000
24.3500 3.7797 1.0000
24.3600 2.4139 1.0000
24.3700 1.7058 1.0000
24.3800 1.9762 1.0000
24.3900 2.3769 1.0000
24.4000 2.9122 1.0000
24.4100 3.5698 1.0000
24.4200 4.3151 1.0000
24.4300 3.5296 1.0000
24.4400 1.9983 1.0000
24.4500 3.4906 1.0000
24.4600 5.9247 1.0000
24.4700 5.5862 1.0000
24.4800 4.7687 1.0000
24.4900 4.9808 1.0000
24.5000 5.2042 1.0000
24.5100 3.9268 1.0000
24.5200 2.9525 1.0000
24.5300 4.1380 1.0000
24.5400 5.4298 1.0000
24.5500 7.1137 1.0000
24.5600 7.6309 1.0000
24.5700 5.4686 1.0000
24.5800 4.2038 1.0000
24.5900 4.3224 1.0000
24.6000 4.2909 1.0000
24.6100 4.0991 1.0000
24.6200 4.9131 1.0000
24.6300 6.4740 1.0000
24.6400 6.6315 1.0000
24.6500 6.0786 1.0000
24.6600 6.4239 1.0000
24.6700 7.0623 1.0000
24.6800 6.4082 1.0000
24.6900 5.5156 1.0000
24.7000 5.2926 1.0000
24.7100 5.1479 1.0000
24.7200 6.2494 1.0000
24.7300 7.2115 1.0000
24.7400 7.0963 1.0000
24.7500 7.0016 1.0000
24.7600 6.9863 1.0000
24.7700 7.6875 1.0000
24.7800 10.1019 1.0000
24.7900 10.8455 1.0000
24.8000 8.9208 1.0000
24.8100 8.2665 1.0000
24.8200 9.0156 1.0000
24.8300 10.1664 1.0000
24.8400 11.6262 1.0000
24.8500 13.4370 1.0000
24.8600 15.4324 1.0000
24.8700 15.2622 1.0000
24.8800 14.3531 1.0000
24.8900 14.8864 1.0000
24.9000 15.7032 1.0000
24.9100 16.3594 1.0000
24.9200 17.0332 1.0000
24.9300 19.5797 1.0000
24.9400 21.5599 1.0000
24.9500 18.7713 1.0000
24.9600 16.6721 1.0000
24.9700 17.3955 1.0000
24.9800 18.4461 1.0000
24.9900 20.3120 1.0000
25.0000 23.8524 1.0000
25.0100 30.1649 1.0000
25.0200 30.1447 1.0000
25.0300 22.8887 1.0000
25.0400 22.1141 1.0000
25.0500 26.4973 1.0000
25.0600 27.4664 1.0000
25.0700 26.5728 1.0000
25.0800 30.3094 1.0000
25.0900 35.6973 1.0000
25.1000 36.3299 1.0000
25.1100 35.9697 1.0000
25.1200 39.7088 1.0000
25.1300 43.7899 1.0000
25.1400 44.3286 1.0000
25.1500 45.2660 1.0000
25.1600 49.8863 1.0000
25.1700 53.9862 1.0000
25.1800 55.8361 1.0000
25.1900 56.2283 1.0000
25.2000 52.8343 1.0000
25.2100 51.0074 1.0000
25.2200 51.8705 1.0000
25.2300 52.6004 1.0000
25.2400 53.1727 1.0000
25.2500 57.7448 1.0000
25.2600 65.6109 1.0000
25.2700 63.7122 1.0000
25.2800 56.2861 1.0000
25.2900 54.9274 1.0000
25.3000 55.8279 1.0000
25.3100 53.7643 1.0000
25.3200 51.0449 1.0000
25.3300 51.8416 1.0000
25.3400 52.9903 1.0000
25.3500 51.8765 1.0000
25.3600 51.1069 1.0000
25.3700 53.8713 1.0000
25.3800 55.1558 1.0000
25.3900 49.6707 1.0000
25.4000 45.1428 1.0000
25.4100 43.2092 1.0000
25.4200 42.0314 1.0000
25.4300 42.1992 1.0000
25.4400 41.8069 1.0000
25.4500 40.7296 1.0000
25.4600 40.4542 1.0000
25.4700 40.8621 1.0000
25.4800 40.4288 1.0000
25.4900 39.5015 1.0000
25.5000 35.1760 1.0000
25.5100 29.5304 1.0000
25.5200 30.9661 1.0000
25.5300 34.0590 1.0000
25.5400 32.6533 1.0000
25.5500 30.7505 1.0000
25.5600 30.5292 1.0000
25.5700 30.0336 1.0000
25.5800 26.2356 1.0000
25.5900 23.3507 1.0000
25.6000 24.8954 1.0000
25.6100 24.8402 1.0000
25.6200 20.2566 1.0000
25.6300 17.9596 1.0000
25.6400 19.8867 1.0000
25.6500 20.0611 1.0000
25.6600 18.0170 1.0000
25.6700 15.8152 1.0000
25.6800 13.4744 1.0000
25.6900 12.7241 1.0000
25.7000 12.9419 1.0000
25.7100 13.2663 1.0000
25.7200 13.6338 1.0000
25.7300 12.4435 1.0000
25.7400 10.8683 1.0000
25.7500 12.1134 1.0000
25.7600 13.6998 1.0000
25.7700 12.5925 1.0000
25.7800 11.5424 1.0000
25.7900 11.8529 1.0000
25.8000 11.6504 1.0000
25.8100 8.8026 1.0000
25.8200 6.9255 1.0000
25.8300 7.9203 1.0000
25.8400 8.2656 1.0000
25.8500 7.3657 1.0000
25.8600 6.9210 1.0000
25.8700 7.0729 1.0000
25.8800 7.5808 1.0000
25.8900 8.4131 1.0000
25.9000 7.8327 1.0000
25.9100 6.3609 1.0000
25.9200 5.4787 1.0000
25.9300 4.8453 1.0000
25.9400 4.2880 1.0000
25.9500 3.7506 1.0000
25.9600 4.5687 1.0000
25.9700 5.5653 1.0000
25.9800 5.3512 1.0000
25.9900 5.2074 1.0000
26.0000 6.5749 1.0000
26.0100 7.4769 1.0000
26.0200 5.8212 1.0000
26.0300 4.2525 1.0000
26.0400 2.9532 1.0000
26.0500 2.9792 1.0000
26.0600 5.6446 1.0000
26.0700 7.0258 1.0000
26.0800 6.6653 1.0000
26.0900 5.2538 1.0000
26.1000 2.8509 1.0000
26.1100 2.6874 1.0000
26.1200 3.9877 1.0000
26.1300 3.6127 1.0000
26.1400 2.5018 1.0000
26.1500 1.9846 1.0000
26.1600 1.6301 1.0000
26.1700 3.0306 1.0000
26.1800 4.6816 1.0000
26.1900 4.3799 1.0000
26.2000 3.9420 1.0000
26.2100 2.3786 1.0000
26.2200 1.0969 1.0000
26.2300 1.4697 1.0000
26.2400 1.7963 1.0000
26.2500 1.9732 1.0000
26.2600 2.3940 1.0000
26.2700 3.3196 1.0000
26.2800 3.4381 1.0000
26.2900 2.4232 1.0000
26.3000 1.6446 1.0000
26.3100 1.0965 1.0000
26.3200 1.5793 1.0000
26.3300 2.7601 1.0000
26.3400 2.6875 1.0000
26.3500 2.0421 1.0000
26.3600 1.7566 1.0000
26.3700 1.5745 1.0000
26.3800 1.7853 1.0000
26.3900 2.0565 1.0000
26.4000 3.0364 1.0000
26.4100 3.9282 1.0000
26.4200 2.3806 1.0000
26.4300 1.3346 1.0000
26.4400 3.4452 1.0000
26.4500 4.5969 1.0000
26.4600 2.4871 1.0000
26.4700 1.4533 1.0000
26.4800 2.7341 1.0000
26.4900 3.0467 1.0000
26.5000 1.9517 1.0000
26.5100 1.5370 1.0000
26.5200 1.8091 1.0000
26.5300 1.5450 1.0000
26.5400 0.9047 1.0000
26.5500 1.0093 1.0000
26.5600 1.4678 1.0000
26.5700 1.8642 1.0000
26.5800 2.2417 1.0000
26.5900 2.5949 1.0000
26.6000 2.9441 1.0000
26.6100 2.6198 1.0000
26.6200 2.2620 1.0000
26.6300 1.9831 1.0000
26.6400 1.6945 1.0000
26.6500 1.3402 1.0000
26.6600 1.0026 1.0000
26.6700 0.7251 1.0000
26.6800 0.6463 1.0000
26.6900 1.0121 1.0000
26.7000 1.5992 1.0000
26.7100 2.5195 1.0000
26.7200 2.8975 1.0000
26.7300 2.7092 1.0000
26.7400 2.2560 1.0000
26.7500 1.6103 1.0000
26.7600 1.3982 1.0000
26.7700 1.4003 1.0000
26.7800 1.0500 1.0000
26.7900 0.5882 1.0000
26.8000 0.7599 1.0000
26.8100 1.0435 1.0000
26.8200 0.8020 1.0000
26.8300 0.5546 1.0000
26.8400 1.2048 1.0000
26.8500 1.7533 1.0000
26.8600 1.5574 1.0000
26.8700 1.4210 1.0000
26.8800 1.5081 1.0000
26.8900 1.5971 1.0000
26.9000 1.6906 1.0000
26.9100 1.7095 1.0000
26.9200 1.6119 1.0000
26.9300 1.6985 1.0000
26.9400 1.9841 1.0000
26.9500 2.1692 1.0000
26.9600 2.2787 1.0000
26.9700 2.4277 1.0000
26.9800 2.5970 1.0000
26.9900 2.5686 1.0000
27.0000 2.4747 1.0000
27.0100 1.5580 1.0000
27.0200 0.4860 1.0000
27.0300 0.9803 1.0000
27.0400 1.5610 1.0000
27.0500 0.8258 1.0000
27.0600 0.2030 1.0000
27.0700 0.4743 1.0000
27.0800 0.6178 1.0000
27.0900 0.2561 1.0000
27.1000 0.1604 1.0000
27.1100 0.7096 1.0000
27.1200 1.0834 1.0000
27.1300 1.1738 1.0000
27.1400 1.0054 1.0000
27.1500 0.5478 1.0000
27.1600 0.3994 1.0000
27.1700 0.4917 1.0000
27.1800 0.5238 1.0000
27.1900 0.5238 1.0000
27.2000 0.7385 1.0000
27.2100 1.0274 1.0000
27.2200 1.6777 1.0000
27.2300 2.4004 1.0000
27.2400 3.3015 1.0000
27.2500 4.1874 1.0000
27.2600 2.8094 1.0000
27.2700 1.5741 1.0000
27.2800 1.5784 1.0000
27.2900 1.4747 1.0000
27.3000 0.9204 1.0000
27.3100 0.4715 1.0000
27.3200 0.2888 1.0000
27.3300 0.3773 1.0000
27.3400 0.9205 1.0000
27.3500 1.1271 1.0000
27.3600 0.9447 1.0000
27.3700 0.8135 1.0000
27.3800 0.7235 1.0000
27.3900 0.9920 1.0000
27.4000 1.4586 1.0000
27.4100 0.9742 1.0000
27.4200 0.1455 1.0000
27.4300 0.1474 1.0000
27.4400 0.3262 1.0000
27.4500 0.7653 1.0000
27.4600 1.2267 1.0000
27.4700 1.2407 1.0000
27.4800 1.3115 1.0000
27.4900 1.9253 1.0000
27.5000 2.3748 1.0000
27.5100 2.0998 1.0000
27.5200 2.1038 1.0000
27.5300 2.8435 1.0000
27.5400 2.8786 1.0000
27.5500 1.6892 1.0000
27.5600 1.1682 1.0000
27.5700 1.4466 1.0000
27.5800 1.2229 1.0000
27.5900 0.5809 1.0000
27.6000 0.4598 1.0000
27.6100 0.6375 1.0000
27.6200 0.9550 1.0000
27.6300 1.3254 1.0000
27.6400 1.0172 1.0000
27.6500 0.5560 1.0000
27.6600 1.0181 1.0000
27.6700 1.5759 1.0000
27.6800 1.3118 1.0000
27.6900 1.0667 1.0000
27.7000 1.0565 1.0000
27.7100 1.2126 1.0000
27.7200 2.1455 1.0000
27.7300 2.6538 1.0000
27.7400 1.9941 1.0000
27.7500 1.4067 1.0000
27.7600 0.9498 1.0000
27.7700 1.0261 1.0000
27.7800 1.7624 1.0000
27.7900 2.1502 1.0000
27.8000 2.2376 1.0000
27.8100 1.9758 1.0000
27.8200 1.5065 1.0000
27.8300 1.5106 1.0000
27.8400 1.7013 1.0000
27.8500 1.8259 1.0000
27.8600 1.9347 1.0000
27.8700 1.7711 1.0000
27.8800 1.5765 1.0000
27.8900 1.9353 1.0000
27.9000 2.2297 1.0000
27.9100 1.6791 1.0000
27.9200 1.2653 1.0000
27.9300 1.5291 1.0000
27.9400 1.6079 1.0000
27.9500 1.1552 1.0000
27.9600 0.7655 1.0000
27.9700 0.4939 1.0000
27.9800 0.6631 1.0000
27.9900 1.3972 1.0000
28.0000 1.5012 1.0000
28.0100 1.0432 1.0000
28.0200 0.8169 1.0000
28.0300 0.7333 1.0000
28.0400 0.5741 1.0000
28.0500 0.3837 1.0000
28.0600 0.6610 1.0000
28.0700 1.0558 1.0000
28.0800 1.3206 1.0000
28.0900 1.5690 1.0000
28.1000 0.7670 1.0000
28.1100 0.0319 1.0000
28.1200 0.4913 1.0000
28.1300 0.8330 1.0000
28.1400 0.5542 1.0000
28.1500 0.3719 1.0000
28.1600 0.4791 1.0000
28.1700 0.4521 1.0000
28.1800 0.1641 1.0000
28.1900 0.2805 1.0000
28.2000 0.9328 1.0000
28.2100 1.0475 1.0000
28.2200 0.6663 1.0000
28.2300 0.4613 1.0000
28.2400 0.3690 1.0000
28.2500 0.4680 1.0000
28.2600 0.6488 1.0000
28.2700 1.0630 1.0000
28.2800 1.5389 1.0000
28.2900 1.0981 1.0000
28.3000 0.5331 1.0000
28.3100 0.2540 1.0000
28.3200 0.0167 1.0000
28.3300 0.2901 1.0000
28.3400 0.5920 1.0000
28.3500 1.0542 1.0000
28.3600 1.4237 1.0000
28.3700 1.5017 1.0000
28.3800 1.5287 1.0000
28.3900 1.4528 1.0000
28.4000 1.5581 1.0000
28.4100 1.9121 1.0000
28.4200 2.0829 1.0000
28.4300 2.0789 1.0000
28.4400 2.0351 1.0000
28.4500 1.9648 1.0000
28.4600 1.4300 1.0000
28.4700 0.6882 1.0000
28.4800 0.8035 1.0000
28.4900 1.1577 1.0000
28.5000 1.0511 1.0000
28.5100 0.8770 1.0000
28.5200 0.4318 1.0000
28.5300 0.0430 1.0000
28.5400 0.8615 1.0000
28.5500 1.4859 1.0000
28.5600 0.9436 1.0000
28.5700 0.5886 1.0000
28.5800 0.8516 1.0000
28.5900 1.0630 1.0000
28.6000 1.1666 1.0000
28.6100 1.1889 1.0000
28.6200 1.0957 1.0000
28.6300 1.1417 1.0000
28.6400 1.3252 1.0000
28.6500 1.1251 1.0000
28.6600 0.6620 1.0000
28.6700 0.6432 1.0000
28.6800 0.8302 1.0000
28.6900 1.1712 1.0000
28.7000 1.5572 1.0000
28.7100 0.8818 1.0000
28.7200 0.0389 1.0000
28.7300 0.0000 1.0000
28.7400 0.0244 1.0000
28.7500 0.5783 1.0000
28.7600 1.1200 1.0000
28.7700 1.5835 1.0000
28.7800 1.9028 1.0000
28.7900 1.7235 1.0000
28.8000 1.5925 1.0000
28.8100 1.5667 1.0000
28.8200 1.2947 1.0000
28.8300 0.6604 1.0000
28.8400 0.6134 1.0000
28.8500 1.1663 1.0000
28.8600 1.0202 1.0000
28.8700 0.3779 1.0000
28.8800 0.2290 1.0000
28.8900 0.3176 1.0000
28.9000 0.2723 1.0000
28.9100 0.1858 1.0000
28.9200 0.1731 1.0000
28.9300 0.1727 1.0000
28.9400 0.8694 1.0000
28.9500 1.5709 1.0000
28.9600 1.3142 1.0000
28.9700 1.0874 1.0000
28.9800 1.0693 1.0000
28.9900 1.0545 1.0000
29.0000 1.0517 1.0000
29.0100 0.9932 1.0000
29.0200 0.8084 1.0000
29.0300 0.5522 1.0000
29.0400 0.1874 1.0000
29.0500 0.0437 1.0000
29.0600 0.1337 1.0000
29.0700 0.3832 1.0000
29.0800 0.7500 1.0000
29.0900 0.6289 1.0000
29.1000 0.2638 1.0000
29.1100 1.2875 1.0000
29.1200 2.7580 1.0000
29.1300 2.1353 1.0000
29.1400 1.1340 1.0000
29.1500 0.5455 1.0000
29.1600 0.0149 1.0000
29.1700 0.5653 1.0000
29.1800 1.0188 1.0000
29.1900 0.7427 1.0000
29.2000 0.4669 1.0000
29.2100 0.1927 1.0000
29.2200 0.0848 1.0000
29.2300 0.3697 1.0000
29.2400 0.5740 1.0000
29.2500 0.6508 1.0000
29.2600 0.8662 1.0000
29.2700 1.2329 1.0000
29.2800 1.2972 1.0000
29.2900 1.1313 1.0000
29.3000 0.9441 1.0000
29.3100 0.7458 1.0000
29.3200 0.9688 1.0000
29.3300 1.3336 1.0000
29.3400 0.7813 1.0000
29.3500 0.0521 1.0000
29.3600 0.2555 1.0000
29.3700 0.5357 1.0000
29.3800 1.0772 1.0000
29.3900 1.5502 1.0000
29.4000 1.4611 1.0000
29.4100 1.2807 1.0000
29.4200 0.7325 1.0000
29.4300 0.3963 1.0000
29.4400 0.5813 1.0000
29.4500 0.7637 1.0000
29.4600 0.9416 1.0000
29.4700 1.2119 1.0000
29.4800 1.5867 1.0000
29.4900 1.5415 1.0000
29.5000 1.1657 1.0000
29.5100 0.8611 1.0000
29.5200 0.5949 1.0000
29.5300 0.8051 1.0000
29.5400 1.1830 1.0000
29.5500 1.1689 1.0000
29.5600 1.0743 1.0000
29.5700 0.8026 1.0000
29.5800 0.5194 1.0000
29.5900 0.6115 1.0000
29.6000 0.6856 1.0000
29.6100 0.5977 1.0000
29.6200 0.5268 1.0000
29.6300 0.5281 1.0000
29.6400 0.6067 1.0000
29.6500 0.8836 1.0000
29.6600 0.9558 1.0000
29.6700 0.6808 1.0000
29.6800 0.6986 1.0000
29.6900 1.0590 1.0000
29.7000 1.1241 1.0000
29.7100 0.9488 1.0000
29.7200 0.9459 1.0000
29.7300 1.0394 1.0000
29.7400 0.6569 1.0000
29.7500 0.0995 1.0000
29.7600 0.0000 1.0000
29.7700 0.0000 1.0000
29.7800 0.1633 1.0000
29.7900 0.3429 1.0000
29.8000 0.8058 1.0000
29.8100 1.2346 1.0000
29.8200 1.3262 1.0000
29.8300 1.3005 1.0000
29.8400 0.7477 1.0000
29.8500 0.4946 1.0000
29.8600 1.0426 1.0000
29.8700 1.1955 1.0000
29.8800 0.6528 1.0000
29.8900 0.4014 1.0000
29.9000 0.5023 1.0000
29.9100 0.8521 1.0000
29.9200 1.4117 1.0000
29.9300 1.3125 1.0000
29.9400 0.8309 1.0000
29.9500 0.9693 1.0000
29.9600 1.3455 1.0000
29.9700 0.8894 1.0000
29.9800 0.2419 1.0000
29.9900 0.5944 1.0000
30.0000 1.0541 1.0000
30.0100 0.7780 1.0000
30.0200 0.5278 1.0000
30.0300 0.6181 1.0000
30.0400 0.6761 1.0000
30.0500 0.5805 1.0000
30.0600 0.6573 1.0000
30.0700 1.2154 1.0000
30.0800 1.4888 1.0000
30.0900 1.2421 1.0000
30.1000 1.0889 1.0000
30.1100 1.0529 1.0000
30.1200 0.7464 1.0000
30.1300 0.2039 1.0000
30.1400 0.7503 1.0000
30.1500 1.9523 1.0000
30.1600 1.6343 1.0000
30.1700 0.7086 1.0000
30.1800 0.3774 1.0000
30.1900 0.1908 1.0000
30.2000 0.7522 1.0000
30.2100 1.4017 1.0000
30.2200 1.3962 1.0000
30.2300 1.3620 1.0000
30.2400 1.0985 1.0000
30.2500 0.9395 1.0000
30.2600 1.3089 1.0000
30.2700 1.3957 1.0000
30.2800 0.6577 1.0000
30.2900 0.3314 1.0000
30.3000 0.7852 1.0000
30.3100 1.0435 1.0000
30.3200 1.0485 1.0000
30.3300 1.0489 1.0000
30.3400 1.0452 1.0000
30.3500 1.3777 1.0000
30.3600 1.9200 1.0000
30.3700 1.6948 1.0000
30.3800 1.1497 1.0000
30.3900 0.6057 1.0000
30.4000 0.0619 1.0000
30.4100 0.0000 1.0000
30.4200 0.0000 1.0000
30.4300 0.8051 1.0000
30.4400 1.5441 1.0000
30.4500 1.0818 1.0000
30.4600 0.7501 1.0000
30.4700 1.1217 1.0000
30.4800 1.3540 1.0000
30.4900 1.1612 1.0000
30.5000 1.0344 1.0000
30.5100 1.0376 1.0000
30.5200 0.8455 1.0000
30.5300 0.3914 1.0000
30.5400 0.3613 1.0000
30.5500 0.7271 1.0000
30.5600 0.9308 1.0000
30.5700 1.0297 1.0000
30.5800 1.2498 1.0000
30.5900 1.5224 1.0000
30.6000 1.1433 1.0000
30.6100 0.5884 1.0000
30.6200 0.5226 1.0000
30.6300 0.5249 1.0000
30.6400 0.2589 1.0000
30.6500 0.0000 1.0000
30.6600 0.0000 1.0000
30.6700 0.0696 1.0000
30.6800 0.5392 1.0000
30.6900 0.9153 1.0000
30.7000 0.9929 1.0000
30.7100 0.9837 1.0000
30.7200 0.7972 1.0000
30.7300 0.9162 1.0000
30.7400 1.4596 1.0000
30.7500 1.9139 1.0000
30.7600 2.2823 1.0000
30.7700 1.9345 1.0000
30.7800 1.1068 1.0000
30.7900 0.7973 1.0000
30.8000 0.7215 1.0000
30.8100 0.7756 1.0000
30.8200 0.8665 1.0000
30.8300 0.5587 1.0000
30.8400 0.1911 1.0000
30.8500 0.3440 1.0000
30.8600 0.5016 1.0000
30.8700 0.3248 1.0000
30.8800 0.2362 1.0000
30.8900 0.6901 1.0000
30.9000 0.9145 1.0000
30.9100 0.3702 1.0000
30.9200 0.3243 1.0000
30.9300 1.3379 1.0000
30.9400 1.8172 1.0000
30.9500 1.5283 1.0000
30.9600 1.2935 1.0000
30.9700 1.1127 1.0000
30.9800 0.8793 1.0000
30.9900 0.6095 1.0000
31.0000 0.7706 1.0000
31.0100 1.1340 1.0000
31.0200 1.0785 1.0000
31.0300 0.8983 1.0000
31.0400 1.1834 1.0000
31.0500 1.5438 1.0000
31.0600 1.2134 1.0000
31.0700 0.8818 1.0000
31.0800 1.3516 1.0000
31.0900 1.6986 1.0000
31.1000 1.2329 1.0000
31.1100 0.8504 1.0000
31.1200 0.7608 1.0000
31.1300 0.7268 1.0000
31.1400 0.8160 1.0000
31.1500 0.8345 1.0000
31.1600 0.7478 1.0000
31.1700 1.0592 1.0000
31.1800 1.7820 1.0000
31.1900 1.6097 1.0000
31.2000 0.7944 1.0000
31.2100 0.4018 1.0000
31.2200 0.2154 1.0000
31.2300 0.4469 1.0000
31.2400 0.8088 1.0000
31.2500 0.7954 1.0000
31.2600 0.7169 1.0000
31.2700 0.5259 1.0000
31.2800 0.3377 1.0000
31.2900 0.4353 1.0000
31.3000 0.5203 1.0000
31.3100 0.5158 1.0000
31.3200 0.4551 1.0000
31.3300 0.1869 1.0000
31.3400 0.1678 1.0000
31.3500 0.7214 1.0000
31.3600 0.8396 1.0000
31.3700 0.2860 1.0000
31.3800 0.0437 1.0000
31.3900 0.1341 1.0000
31.4000 0.4328 1.0000
31.4100 0.8862 1.0000
31.4200 0.6778 1.0000
31.4300 0.1339 1.0000
31.4400 0.4944 1.0000
31.4500 1.1504 1.0000
31.4600 0.6992 1.0000
31.4700 0.0433 1.0000
31.4800 0.5139 1.0000
31.4900 1.0461 1.0000
31.5000 0.8565 1.0000
31.5100 0.7513 1.0000
31.5200 1.3003 1.0000
31.5300 1.7212 1.0000
31.5400 1.6439 1.0000
31.5500 1.5909 1.0000
31.5600 1.5961 1.0000
31.5700 1.3835 1.0000
31.5800 0.8223 1.0000
31.5900 0.5697 1.0000
31.6000 0.6586 1.0000
31.6100 0.7974 1.0000
31.6200 0.9748 1.0000
31.6300 1.1004 1.0000
31.6400 1.1987 1.0000
31.6500 1.5718 1.0000
31.6600 2.0387 1.0000
31.6700 1.2642 1.0000
31.6800 0.2451 1.0000
31.6900 0.1705 1.0000
31.7000 0.1790 1.0000
31.7100 0.6325 1.0000
31.7200 1.0681 1.0000
31.7300 1.3521 1.0000
31.7400 1.5311 1.0000
31.7500 1.2789 1.0000
31.7600 1.1166 1.0000
31.7700 1.1785 1.0000
31.7800 1.0817 1.0000
31.7900 0.7218 1.0000
31.8000 0.4004 1.0000
31.8100 0.1230 1.0000
31.8200 0.0000 1.0000
31.8300 0.0000 1.0000
31.8400 0.1783 1.0000
31.8500 0.4539 1.0000
31.8600 0.3233 1.0000
31.8700 0.0477 1.0000
31.8800 0.0000 1.0000
31.8900 0.0000 1.0000
31.9000 0.0829 1.0000
31.9100 0.1720 1.0000
31.9200 0.0816 1.0000
31.9300 0.0270 1.0000
31.9400 0.3046 1.0000
31.9500 0.4780 1.0000
31.9600 0.2005 1.0000
31.9700 0.3098 1.0000
31.9800 1.4255 1.0000
31.9900 1.8525 1.0000
32.0000 1.0959 1.0000
32.0100 0.9439 1.0000
32.0200 1.5072 1.0000
32.0300 1.2562 1.0000
32.0400 0.3337 1.0000
32.0500 0.1844 1.0000
32.0600 0.4732 1.0000
32.0700 0.5380 1.0000
32.0800 0.5193 1.0000
32.0900 0.7473 1.0000
32.1000 1.0301 1.0000
32.1100 0.8878 1.0000
32.1200 0.7027 1.0000
32.1300 0.7949 1.0000
32.1400 0.8546 1.0000
32.1500 0.5765 1.0000
32.1600 0.4453 1.0000
32.1700 0.9875 1.0000
32.1800 1.3114 1.0000
32.1900 1.0426 1.0000
32.2000 0.9053 1.0000
32.2100 1.0024 1.0000
32.2200 1.0550 1.0000
32.2300 1.0530 1.0000
32.2400 0.9503 1.0000
32.2500 0.7618 1.0000
32.2600 0.9249 1.0000
32.2700 1.2947 1.0000
32.2800 1.0681 1.0000
32.2900 0.6096 1.0000
32.3000 0.6716 1.0000
32.3100 0.8558 1.0000
32.3200 1.2100 1.0000
32.3300 1.5831 1.0000
32.3400 1.0361 1.0000
32.3500 0.5245 1.0000
32.3600 0.5197 1.0000
32.3700 0.5477 1.0000
32.3800 0.7350 1.0000
32.3900 0.8257 1.0000
32.4000 0.6423 1.0000
32.4100 0.4271 1.0000
32.4200 0.1531 1.0000
32.4300 0.2805 1.0000
32.4400 0.9164 1.0000
32.4500 1.1680 1.0000
32.4600 1.0804 1.0000
32.4700 0.9904 1.0000
32.4800 0.8989 1.0000
32.4900 1.1355 1.0000
32.5000 1.5052 1.0000
32.5100 1.4309 1.0000
32.5200 1.2467 1.0000
32.5300 1.3816 1.0000
32.5400 1.5553 1.0000
32.5500 1.1129 1.0000
32.5600 0.6785 1.0000
32.5700 0.4943 1.0000
32.5800 0.3258 1.0000
32.5900 0.2375 1.0000
32.6000 0.3117 1.0000
32.6100 0.8668 1.0000
32.6200 1.2027 1.0000
32.6300 1.1174 1.0000
32.6400 0.8269 1.0000
32.6500 0.2671 1.0000
32.6600 0.0474 1.0000
32.6700 0.1380 1.0000
32.6800 0.3973 1.0000
32.6900 0.7632 1.0000
32.7000 0.7477 1.0000
32.7100 0.5710 1.0000
32.7200 0.3125 1.0000
32.7300 0.0327 1.0000
32.7400 0.0790 1.0000
32.7500 0.1684 1.0000
32.7600 0.5261 1.0000
32.7700 0.8799 1.0000
32.7800 1.0696 1.0000
32.7900 1.1311 1.0000
32.8000 0.4870 1.0000
32.8100 0.0219 1.0000
32.8200 0.1115 1.0000
32.8300 0.2369 1.0000
32.8400 0.4336 1.0000
32.8500 0.4254 1.0000
32.8600 0.1391 1.0000
32.8700 0.1433 1.0000
32.8800 0.4219 1.0000
32.8900 0.4713 1.0000
32.9000 0.3707 1.0000
32.9100 0.5353 1.0000
32.9200 0.8166 1.0000
32.9300 0.9452 1.0000
32.9400 1.0318 1.0000
32.9500 0.8025 1.0000
32.9600 0.5280 1.0000
32.9700 0.6122 1.0000
32.9800 0.6836 1.0000
32.9900 0.3150 1.0000
33.0000 0.0851 1.0000
33.0100 0.6713 1.0000
33.0200 0.9816 1.0000
33.0300 0.3954 1.0000
33.0400 0.0000 1.0000
33.0500 0.0000 1.0000
33.0600 0.3430 1.0000
33.0700 1.1681 1.0000
33.0800 1.3419 1.0000
33.0900 0.8793 1.0000
33.1000 0.5834 1.0000
33.1100 0.4004 1.0000
33.1200 0.4698 1.0000
33.1300 0.6546 1.0000
33.1400 0.6301 1.0000
33.1500 0.5453 1.0000
33.1600 1.0797 1.0000
33.1700 1.7096 1.0000
33.1800 1.1233 1.0000
33.1900 0.4992 1.0000
33.2000 0.2313 1.0000
33.2100 0.1009 1.0000
33.2200 0.8386 1.0000
33.2300 1.4683 1.0000
33.2400 1.7300 1.0000
33.2500 1.6786 1.0000
33.2600 0.9526 1.0000
33.2700 0.6368 1.0000
33.2800 0.9179 1.0000
33.2900 1.0522 1.0000
33.3000 1.0380 1.0000
33.3100 1.0360 1.0000
33.3200 1.0426 1.0000
33.3300 0.9837 1.0000
33.3400 0.8936 1.0000
33.3500 0.9489 1.0000
33.3600 1.0483 1.0000
33.3700 0.9719 1.0000
33.3800 0.8663 1.0000
33.3900 1.6430 1.0000
33.4000 2.4193 1.0000
33.4100 1.9713 1.0000
33.4200 1.5107 1.0000
33.4300 0.9655 1.0000
33.4400 0.6580 1.0000
33.4500 1.2011 1.0000
33.4600 1.3218 1.0000
33.4700 0.4963 1.0000
33.4800 0.2932 1.0000
33.4900 1.0284 1.0000
33.5000 1.2653 1.0000
33.5100 0.9812 1.0000
33.5200 0.8634 1.0000
33.5300 0.8666 1.0000
33.5400 0.5636 1.0000
33.5500 0.1093 1.0000
33.5600 0.2189 1.0000
33.5700 0.5072 1.0000
33.5800 0.8603 1.0000
33.5900 1.2249 1.0000
33.6000 1.1466 1.0000
33.6100 1.0514 1.0000
33.6200 1.3363 1.0000
33.6300 1.5855 1.0000
33.6400 1.5733 1.0000
33.6500 1.5253 1.0000
33.6600 1.3425 1.0000
33.6700 1.1608 1.0000
33.6800 0.9814 1.0000
33.6900 0.7652 1.0000
33.7000 0.4916 1.0000
33.7100 0.5703 1.0000
33.7200 1.0299 1.0000
33.7300 1.1172 1.0000
33.7400 0.9243 1.0000
33.7500 0.9793 1.0000
33.7600 1.1617 1.0000
33.7700 0.8673 1.0000
33.7800 0.4148 1.0000
33.7900 0.1919 1.0000
33.8000 0.0124 1.0000
33.8100 0.0000 1.0000
33.8200 0.0134 1.0000
33.8300 0.6456 1.0000
33.8400 1.1369 1.0000
33.8500 0.5047 1.0000
33.8600 0.0562 1.0000
33.8700 0.3351 1.0000
33.8800 0.6893 1.0000
33.8900 1.2261 1.0000
33.9000 1.3520 1.0000
33.9100 0.8126 1.0000
33.9200 0.5257 1.0000
33.9300 0.5211 1.0000
33.9400 0.5206 1.0000
33.9500 0.5233 1.0000
33.9600 0.4039 1.0000
33.9700 0.2193 1.0000
33.9800 0.5107 1.0000
33.9900 0.9671 1.0000
34.0000 0.7377 1.0000
34.0100 0.3704 1.0000
34.0200 0.6763 1.0000
34.0300 1.0272 1.0000
34.0400 0.4857 1.0000
34.0500 0.0289 1.0000
34.0600 0.3094 1.0000
34.0700 0.5356 1.0000
34.0800 0.5343 1.0000
34.0900 0.4543 1.0000
34.1000 0.1750 1.0000
34.1100 0.1376 1.0000
34.1200 0.5063 1.0000
34.1300 0.9188 1.0000
34.1400 1.3820 1.0000
34.1500 1.1282 1.0000
34.1600 0.2963 1.0000
34.1700 0.1798 1.0000
34.1800 0.4590 1.0000
34.1900 0.3284 1.0000
34.2000 0.0491 1.0000
34.2100 0.2287 1.0000
34.2200 0.5061 1.0000
34.2300 0.3587 1.0000
34.2400 0.1745 1.0000
34.2500 0.7281 1.0000
34.2600 1.2197 1.0000
34.2700 1.1177 1.0000
34.2800 1.0351 1.0000
34.2900 1.0385 1.0000
34.3000 0.9161 1.0000
34.3100 0.4616 1.0000
34.3200 0.5076 1.0000
34.3300 1.4249 1.0000
34.3400 1.5891 1.0000
34.3500 0.8515 1.0000
34.3600 0.5178 1.0000
34.3700 0.5211 1.0000
34.3800 0.7010 1.0000
34.3900 0.9822 1.0000
34.4000 0.7227 1.0000
34.4100 0.2585 1.0000
34.4200 0.4717 1.0000
34.4300 0.8379 1.0000
34.4400 0.8677 1.0000
34.4500 0.8624 1.0000
34.4600 0.6791 1.0000
34.4700 0.5191 1.0000
34.4800 0.6147 1.0000
34.4900 0.6781 1.0000
34.5000 0.5909 1.0000
34.5100 0.6474 1.0000
34.5200 1.1000 1.0000
34.5300 1.3589 1.0000
34.5400 1.2680 1.0000
34.5500 1.0587 1.0000
34.5600 0.7027 1.0000
34.5700 0.6335 1.0000
34.5800 0.8119 1.0000
34.5900 1.1669 1.0000
34.6000 1.6269 1.0000
34.6100 1.8096 1.0000
34.6200 1.8828 1.0000
34.6300 1.5365 1.0000
34.6400 1.0899 1.0000
34.6500 1.0487 1.0000
34.6600 1.0539 1.0000
34.6700 1.4013 1.0000
34.6800 1.6773 1.0000
34.6900 1.0513 1.0000
34.7000 0.4837 1.0000
34.7100 0.2061 1.0000
34.7200 0.0703 1.0000
34.7300 0.3432 1.0000
34.7400 0.7149 1.0000
34.7500 1.2720 1.0000
34.7600 1.2215 1.0000
34.7700 0.3915 1.0000
34.7800 0.3363 1.0000
34.7900 0.9729 1.0000
34.8000 1.1038 1.0000
34.8100 0.9225 1.0000
34.8200 1.2007 1.0000
34.8300 1.6678 1.0000
34.8400 1.9100 1.0000
34.8500 2.0954 1.0000
34.8600 1.2915 1.0000
34.8700 0.3639 1.0000
34.8800 0.5288 1.0000
34.8900 0.6974 1.0000
34.9000 0.6006 1.0000
34.9100 0.5643 1.0000
34.9200 0.8473 1.0000
34.9300 1.0838 1.0000
34.9400 1.1801 1.0000
34.9500 1.3932 1.0000
34.9600 1.8333 1.0000
34.9700 1.6154 1.0000
34.9800 0.5240 1.0000
34.9900 0.3780 1.0000
35.0000 1.1051 1.0000
35.0100 1.5013 1.0000
35.0200 1.6858 1.0000
35.0300 1.4206 1.0000
35.0400 0.9628 1.0000
35.0500 1.0856 1.0000
35.0600 1.3626 1.0000
35.0700 1.1525 1.0000
35.0800 0.8760 1.0000
35.0900 0.7735 1.0000
35.1000 0.6823 1.0000
35.1100 0.6862 1.0000
35.1200 0.7039 1.0000
35.1300 0.8003 1.0000
35.1400 1.0301 1.0000
35.1500 1.6802 1.0000
35.1600 1.8688 1.0000
35.1700 1.1249 1.0000
35.1800 0.5412 1.0000
35.1900 0.1777 1.0000
35.2000 0.0000 1.0000
35.2100 0.0000 1.0000
35.2200 0.2294 1.0000
35.2300 0.6109 1.0000
35.2400 1.1619 1.0000
35.2500 1.7886 1.0000
35.2600 1.1373 1.0000
35.2700 0.1291 1.0000
35.2800 0.0000 1.0000
35.2900 0.0000 1.0000
35.3000 0.3590 1.0000
35.3100 0.7363 1.0000
35.3200 1.1906 1.0000
35.3300 1.5793 1.0000
35.3400 1.5725 1.0000
35.3500 1.3766 1.0000
35.3600 0.5559 1.0000
35.3700 0.2939 1.0000
35.3800 1.2048 1.0000
35.3900 1.7374 1.0000
35.4000 1.7319 1.0000
35.4100 1.7799 1.0000
35.4200 1.8810 1.0000
35.4300 1.3253 1.0000
35.4400 0.3189 1.0000
35.4500 0.5624 1.0000
35.4600 1.3856 1.0000
35.4700 1.7121 1.0000
35.4800 1.8930 1.0000
35.4900 1.9196 1.0000
35.5000 1.9219 1.0000
35.5100 1.3998 1.0000
35.5200 0.8845 1.0000
35.5300 1.0753 1.0000
35.5400 1.1903 1.0000
35.5500 0.8148 1.0000
35.5600 0.6065 1.0000
35.5700 0.9779 1.0000
35.5800 1.0580 1.0000
35.5900 0.5021 1.0000
35.6000 0.3190 1.0000
35.6100 0.6850 1.0000
35.6200 0.7812 1.0000
35.6300 0.6013 1.0000
35.6400 0.6875 1.0000
35.6500 0.9628 1.0000
35.6600 0.6806 1.0000
35.6700 0.1296 1.0000
35.6800 0.2094 1.0000
35.6900 0.4831 1.0000
35.7000 0.5226 1.0000
35.7100 0.5223 1.0000
35.7200 0.6057 1.0000
35.7300 0.6876 1.0000
35.7400 0.5956 1.0000
35.7500 0.5623 1.0000
35.7600 0.9384 1.0000
35.7700 1.3100 1.0000
35.7800 1.6655 1.0000
35.7900 1.9414 1.0000
35.8000 2.0362 1.0000
35.8100 1.7308 1.0000
35.8200 0.8144 1.0000
35.8300 0.2995 1.0000
35.8400 0.2094 1.0000
35.8500 0.4372 1.0000
35.8600 0.8989 1.0000
35.8700 0.9332 1.0000
35.8800 0.7534 1.0000
35.8900 1.0537 1.0000
35.9000 1.5086 1.0000
35.9100 2.2028 1.0000
35.9200 2.9404 1.0000
35.9300 2.0449 1.0000
35.9400 1.0631 1.0000
35.9500 0.9608 1.0000
35.9600 0.8500 1.0000
35.9700 0.6753 1.0000
35.9800 0.6497 1.0000
35.9900 1.1952 1.0000
36.0000 1.4145 1.0000
36.0100 0.8626 1.0000
36.0200 0.6291 1.0000
36.0300 0.8993 1.0000
36.0400 1.1795 1.0000
36.0500 1.4708 1.0000
36.0600 1.3337 1.0000
36.0700 0.8705 1.0000
36.0800 0.5847 1.0000
36.0900 0.3913 1.0000
36.1000 0.4133 1.0000
36.1100 0.5079 1.0000
36.1200 0.9791 1.0000
36.1300 1.5231 1.0000
36.1400 1.3075 1.0000
36.1500 1.0333 1.0000
36.1600 0.7691 1.0000
36.1700 0.5331 1.0000
36.1800 0.5286 1.0000
36.1900 0.5420 1.0000
36.2000 0.6275 1.0000
36.2100 0.6901 1.0000
36.2200 0.6962 1.0000
36.2300 0.5612 1.0000
36.2400 0.1946 1.0000
36.2500 0.0000 1.0000
36.2600 0.0000 1.0000
36.2700 0.2027 1.0000
36.2800 0.5651 1.0000
36.2900 1.1642 1.0000
36.3000 1.8911 1.0000
36.3100 2.5662 1.0000
36.3200 3.2230 1.0000
36.3300 1.8863 1.0000
36.3400 0.1401 1.0000
36.3500 0.3354 1.0000
36.3600 0.7064 1.0000
36.3700 1.7195 1.0000
36.3800 2.6150 1.0000
36.3900 2.4514 1.0000
36.4000 2.3514 1.0000
36.4100 2.5220 1.0000
36.4200 2.4862 1.0000
36.4300 1.9203 1.0000
36.4400 1.5314 1.0000
36.4500 1.4435 1.0000
36.4600 1.3977 1.0000
36.4700 1.4010 1.0000
36.4800 1.4493 1.0000
36.4900 1.5340 1.0000
36.5000 1.2749 1.0000
36.5100 0.8231 1.0000
36.5200 1.6409 1.0000
36.5300 2.9258 1.0000
36.5400 2.9331 1.0000
36.5500 2.6621 1.0000
36.5600 2.7278 1.0000
36.5700 2.8253 1.0000
36.5800 2.2668 1.0000
36.5900 1.7513 1.0000
36.6000 1.6616 1.0000
36.6100 1.7174 1.0000
36.6200 2.4287 1.0000
36.6300 3.0230 1.0000
36.6400 3.3042 1.0000
36.6500 3.5194 1.0000
36.6600 3.6183 1.0000
36.6700 3.5176 1.0000
36.6800 3.1749 1.0000
36.6900 2.8469 1.0000
36.7000 2.5313 1.0000
36.7100 2.0829 1.0000
36.7200 1.5573 1.0000
36.7300 2.4572 1.0000
36.7400 3.9045 1.0000
36.7500 3.4369 1.0000
36.7600 2.5278 1.0000
36.7700 2.1093 1.0000
36.7800 1.7436 1.0000
36.7900 1.8450 1.0000
36.8000 1.9634 1.0000
36.8100 2.2336 1.0000
36.8200 2.3134 1.0000
36.8300 1.4843 1.0000
36.8400 1.1402 1.0000
36.8500 2.1527 1.0000
36.8600 2.9025 1.0000
36.8700 3.1722 1.0000
36.8800 3.7695 1.0000
36.8900 4.7777 1.0000
36.9000 5.3476 1.0000
36.9100 5.5349 1.0000
36.9200 4.6841 1.0000
36.9300 3.2077 1.0000
36.9400 3.2353 1.0000
36.9500 3.8652 1.0000
36.9600 4.0057 1.0000
36.9700 4.0271 1.0000
36.9800 4.1738 1.0000
36.9900 4.3354 1.0000
37.0000 3.9241 1.0000
37.0100 3.5215 1.0000
37.0200 3.3398 1.0000
37.0300 3.3194 1.0000
37.0400 4.1170 1.0000
37.0500 4.9882 1.0000
37.0600 6.0740 1.0000
37.0700 6.5386 1.0000
37.0800 5.8241 1.0000
37.0900 5.6688 1.0000
37.1000 6.2393 1.0000
37.1100 5.8819 1.0000
37.1200 4.6861 1.0000
37.1300 4.6094 1.0000
37.1400 5.2319 1.0000
37.1500 4.5754 1.0000
37.1600 3.3854 1.0000
37.1700 2.7863 1.0000
37.1800 2.3389 1.0000
37.1900 3.7347 1.0000
37.2000 5.3678 1.0000
37.2100 3.8030 1.0000
37.2200 2.2994 1.0000
37.2300 2.7658 1.0000
37.2400 3.1006 1.0000
37.2500 2.7247 1.0000
37.2600 3.2147 1.0000
37.2700 6.3519 1.0000
37.2800 7.5026 1.0000
37.2900 4.7382 1.0000
37.3000 3.6634 1.0000
37.3100 4.8581 1.0000
37.3200 5.2118 1.0000
37.3300 4.7795 1.0000
37.3400 4.3797 1.0000
37.3500 4.0009 1.0000
37.3600 4.8957 1.0000
37.3700 6.3439 1.0000
37.3800 5.6388 1.0000
37.3900 4.3520 1.0000
37.4000 5.7570 1.0000
37.4100 7.5379 1.0000
37.4200 5.8030 1.0000
37.4300 4.1090 1.0000
37.4400 5.0064 1.0000
37.4500 5.7173 1.0000
37.4600 5.3523 1.0000
37.4700 5.3555 1.0000
37.4800 6.5376 1.0000
37.4900 7.0859 1.0000
37.5000 6.3364 1.0000
37.5100 6.3497 1.0000
37.5200 7.4238 1.0000
37.5300 8.0365 1.0000
37.5400 8.2032 1.0000
37.5500 8.7477 1.0000
37.5600 9.5455 1.0000
37.5700 9.1495 1.0000
37.5800 8.2139 1.0000
37.5900 7.6685 1.0000
37.6000 7.2338 1.0000
37.6100 7.1640 1.0000
37.6200 7.1493 1.0000
37.6300 9.1774 1.0000
37.6400 11.1622 1.0000
37.6500 10.6327 1.0000
37.6600 10.0232 1.0000
37.6700 8.9194 1.0000
37.6800 8.3424 1.0000
37.6900 9.5336 1.0000
37.7000 10.1887 1.0000
37.7100 9.7029 1.0000
37.7200 10.0182 1.0000
37.7300 11.4873 1.0000
37.7400 11.1319 1.0000
37.7500 8.9518 1.0000
37.7600 8.7118 1.0000
37.7700 9.8195 1.0000
37.7800 9.9772 1.0000
37.7900 9.6883 1.0000
37.8000 8.6520 1.0000
37.8100 7.3929 1.0000
37.8200 7.6819 1.0000
37.8300 8.2219 1.0000
37.8400 9.2268 1.0000
37.8500 10.1574 1.0000
37.8600 8.7745 1.0000
37.8700 7.5049 1.0000
37.8800 6.9873 1.0000
37.8900 6.4395 1.0000
37.9000 5.7853 1.0000
37.9100 5.4250 1.0000
37.9200 5.7153 1.0000
37.9300 6.8973 1.0000
37.9400 9.4093 1.0000
37.9500 10.2267 1.0000
37.9600 9.2909 1.0000
37.9700 9.3060 1.0000
37.9800 10.0050 1.0000
37.9900 9.7149 1.0000
38.0000 8.9414 1.0000
38.0100 10.0695 1.0000
38.0200 11.7918 1.0000
38.0300 10.6694 1.0000
38.0400 9.0530 1.0000
38.0500 8.7551 1.0000
38.0600 8.5126 1.0000
38.0700 7.5086 1.0000
38.0800 6.5060 1.0000
38.0900 5.5136 1.0000
38.1000 4.8176 1.0000
38.1100 5.2195 1.0000
38.1200 5.6008 1.0000
38.1300 5.9347 1.0000
38.1400 5.6275 1.0000
38.1500 4.3299 1.0000
38.1600 4.7803 1.0000
38.1700 7.1015 1.0000
38.1800 8.1316 1.0000
38.1900 8.2005 1.0000
38.2000 7.1322 1.0000
38.2100 5.4869 1.0000
38.2200 5.0153 1.0000
38.2300 4.9278 1.0000
38.2400 5.7680 1.0000
38.2500 6.7801 1.0000
38.2600 8.0517 1.0000
38.2700 9.2295 1.0000
38.2800 5.8237 1.0000
38.2900 2.8796 1.0000
38.3000 3.5230 1.0000
38.3100 4.3521 1.0000
38.3200 5.9047 1.0000
38.3300 6.2977 1.0000
38.3400 3.9100 1.0000
38.3500 2.7216 1.0000
38.3600 3.4536 1.0000
38.3700 4.6858 1.0000
38.3800 6.4719 1.0000
38.3900 6.4610 1.0000
38.4000 5.0648 1.0000
38.4100 4.3396 1.0000
38.4200 3.9681 1.0000
38.4300 4.8278 1.0000
38.4400 6.1088 1.0000
38.4500 5.5550 1.0000
38.4600 4.6389 1.0000
38.4700 4.9780 1.0000
38.4800 5.4006 1.0000
38.4900 4.6717 1.0000
38.5000 4.0678 1.0000
38.5100 4.5223 1.0000
38.5200 4.8902 1.0000
38.5300 4.9025 1.0000
38.5400 5.1222 1.0000
38.5500 5.8604 1.0000
38.5600 5.7373 1.0000
38.5700 4.1846 1.0000
38.5800 4.0759 1.0000
38.5900 5.6211 1.0000
38.6000 6.5995 1.0000
38.6100 7.1256 1.0000
38.6200 6.8511 1.0000
38.6300 6.1386 1.0000
38.6400 6.1651 1.0000
38.6500 6.4559 1.0000
38.6600 4.9716 1.0000
38.6700 3.1151 1.0000
38.6800 3.8843 1.0000
38.6900 4.8741 1.0000
38.7000 3.3462 1.0000
38.7100 2.0803 1.0000
38.7200 3.2514 1.0000
38.7300 4.2276 1.0000
38.7400 4.3581 1.0000
38.7500 4.1864 1.0000
38.7600 3.2276 1.0000
38.7700 3.3968 1.0000
38.7800 5.5071 1.0000
38.7900 5.3946 1.0000
38.8000 2.6481 1.0000
38.8100 1.8051 1.0000
38.8200 2.5332 1.0000
38.8300 2.6155 1.0000
38.8400 2.3311 1.0000
38.8500 3.4587 1.0000
38.8600 5.1136 1.0000
38.8700 4.3012 1.0000
38.8800 2.9407 1.0000
38.8900 2.0506 1.0000
38.9000 1.2080 1.0000
38.9100 0.9410 1.0000
38.9200 0.8196 1.0000
38.9300 2.1873 1.0000
38.9400 3.1627 1.0000
38.9500 2.3368 1.0000
38.9600 1.9328 1.0000
38.9700 2.6757 1.0000
38.9800 3.0475 1.0000
38.9900 2.7566 1.0000
39.0000 2.5273 1.0000
39.0100 2.3733 1.0000
39.0200 1.9488 1.0000
39.0300 1.2932 1.0000
39.0400 1.6289 1.0000
39.0500 2.5481 1.0000
39.0600 2.3437 1.0000
39.0700 1.7016 1.0000
39.0800 1.5710 1.0000
39.0900 1.5606 1.0000
39.1000 1.8044 1.0000
39.1100 2.0765 1.0000
39.1200 1.4526 1.0000
39.1300 0.9071 1.0000
39.1400 1.3634 1.0000
39.1500 1.8026 1.0000
39.1600 2.1581 1.0000
39.1700 2.1624 1.0000
39.1800 1.1696 1.0000
39.1900 1.1037 1.0000
39.2000 2.7548 1.0000
39.2100 3.1872 1.0000
39.2200 2.0729 1.0000
39.2300 1.4084 1.0000
39.2400 1.1413 1.0000
39.2500 1.1567 1.0000
39.2600 1.3446 1.0000
39.2700 1.5283 1.0000
39.2800 1.7103 1.0000
39.2900 1.5893 1.0000
39.3000 1.3930 1.0000
39.3100 1.7269 1.0000
39.3200 2.1254 1.0000
39.3300 1.6706 1.0000
39.3400 1.1939 1.0000
39.3500 0.6395 1.0000
39.3600 0.2193 1.0000
39.3700 0.4945 1.0000
39.3800 0.7435 1.0000
39.3900 0.9150 1.0000
39.4000 1.1276 1.0000
39.4100 1.4195 1.0000
39.4200 1.2264 1.0000
39.4300 0.3964 1.0000
39.4400 0.1958 1.0000
39.4500 0.5705 1.0000
39.4600 1.2171 1.0000
39.4700 2.0357 1.0000
39.4800 2.1451 1.0000
39.4900 1.9543 1.0000
39.5000 1.9179 1.0000
39.5100 1.9217 1.0000
39.5200 1.7641 1.0000
39.5300 1.5851 1.0000
39.5400 1.3226 1.0000
39.5500 1.0850 1.0000
39.5600 1.2508 1.0000
39.5700 1.4205 1.0000
39.5800 1.6117 1.0000
39.5900 1.7752 1.0000
39.6000 1.8524 1.0000
39.6100 1.7538 1.0000
39.6200 1.3037 1.0000
39.6300 0.8507 1.0000
39.6400 0.3936 1.0000
39.6500 0.4117 1.0000
39.6600 0.8794 1.0000
39.6700 0.8938 1.0000
39.6800 0.6114 1.0000
39.6900 0.3342 1.0000
39.7000 0.0593 1.0000
39.7100 0.2903 1.0000
39.7200 0.6605 1.0000
39.7300 0.3832 1.0000
39.7400 0.0131 1.0000
39.7500 0.5304 1.0000
39.7600 1.0402 1.0000
39.7700 0.8588 1.0000
39.7800 0.7561 1.0000
39.7900 1.1173 1.0000
39.8000 1.3506 1.0000
39.8100 1.1683 1.0000
39.8200 1.0465 1.0000
39.8300 1.0501 1.0000
39.8400 0.8234 1.0000
39.8500 0.2724 1.0000
39.8600 0.0000 1.0000
39.8700 0.0000 1.0000
39.8800 0.1676 1.0000
39.8900 0.4490 1.0000
39.9000 0.4693 1.0000
39.9100 0.3700 1.0000
39.9200 0.5537 1.0000
39.9300 0.8190 1.0000
39.9400 0.7062 1.0000
39.9500 0.5350 1.0000
39.9600 0.7926 1.0000
39.9700 1.0700 1.0000
39.9800 1.3480 1.0000
39.9900 1.5246 1.0000
40.0000 1.0603 1.0000
40.0100 0.6180 1.0000
40.0200 0.2509 1.0000
40.0300 0.0000 1.0000
40.0400 0.0000 1.0000
40.0500 0.4495 1.0000
40.0600 1.5542 1.0000
40.0700 1.9663 1.0000
40.0800 1.6777 1.0000
40.0900 1.0794 1.0000
40.1000 0.2633 1.0000
40.1100 0.5645 1.0000
40.1200 1.3980 1.0000
40.1300 1.6528 1.0000
40.1400 1.7323 1.0000
40.1500 1.4268 1.0000
40.1600 1.0574 1.0000
40.1700 1.2236 1.0000
40.1800 1.4185 1.0000
40.1900 1.5942 1.0000
40.2000 1.6420 1.0000
40.2100 0.8185 1.0000
40.2200 0.2145 1.0000
40.2300 0.3971 1.0000
40.2400 0.7493 1.0000
40.2500 1.4819 1.0000
40.2600 1.7033 1.0000
40.2700 1.1529 1.0000
40.2800 0.9162 1.0000
40.2900 1.0081 1.0000
40.3000 1.1518 1.0000
40.3100 1.3333 1.0000
40.3200 1.1485 1.0000
40.3300 0.7823 1.0000
40.3400 1.0398 1.0000
40.3500 1.4953 1.0000
40.3600 1.2560 1.0000
40.3700 0.8932 1.0000
40.3800 0.9721 1.0000
40.3900 1.0920 1.0000
40.4000 1.6210 1.0000
40.4100 1.9669 1.0000
40.4200 0.9641 1.0000
40.4300 0.3636 1.0000
40.4400 1.2793 1.0000
40.4500 1.6461 1.0000
40.4600 0.7311 1.0000
40.4700 0.2082 1.0000
40.4800 0.2987 1.0000
40.4900 0.2588 1.0000
40.5000 0.0778 1.0000
40.5100 0.1553 1.0000
40.5200 0.4276 1.0000
40.5300 0.3403 1.0000
40.5400 0.0679 1.0000
40.5500 0.2057 1.0000
40.5600 0.4798 1.0000
40.5700 0.5241 1.0000
40.5800 0.5248 1.0000
40.5900 1.2893 1.0000
40.6000 2.0878 1.0000
40.6100 1.8261 1.0000
40.6200 1.5007 1.0000
40.6300 0.6664 1.0000
40.6400 0.1106 1.0000
40.6500 0.6602 1.0000
40.6600 1.0524 1.0000
40.6700 1.0619 1.0000
40.6800 0.8545 1.0000
40.6900 0.2954 1.0000
40.7000 0.0000 1.0000
40.7100 0.0000 1.0000
40.7200 0.0000 1.0000
40.7300 0.0000 1.0000
40.7400 0.0000 1.0000
40.7500 0.0000 1.0000
40.7600 0.0000 1.0000
40.7700 0.0000 1.0000
40.7800 0.4592 1.0000
40.7900 1.0109 1.0000
40.8000 1.1470 1.0000
40.8100 1.2493 1.0000
40.8200 1.4404 1.0000
40.8300 1.5541 1.0000
40.8400 0.9909 1.0000
40.8500 0.6747 1.0000
40.8600 1.3927 1.0000
40.8700 1.7525 1.0000
40.8800 1.2044 1.0000
40.8900 0.8602 1.0000
40.9000 0.8588 1.0000
40.9100 1.2026 1.0000
40.9200 1.9464 1.0000
40.9300 1.9259 1.0000
40.9400 1.2884 1.0000
40.9500 0.7036 1.0000
40.9600 0.1480 1.0000
40.9700 0.4084 1.0000
40.9800 0.9652 1.0000
40.9900 0.9032 1.0000
41.0000 0.7089 1.0000
41.0100 0.3610 1.0000
41.0200 0.0011 1.0000
41.0300 0.2733 1.0000
41.0400 0.5289 1.0000
41.0500 0.6246 1.0000
41.0600 0.6861 1.0000
41.0700 0.5958 1.0000
41.0800 0.4541 1.0000
41.0900 0.1764 1.0000
41.1000 0.0997 1.0000
41.1100 0.3733 1.0000
41.1200 0.8942 1.0000
41.1300 1.7118 1.0000
41.1400 1.5371 1.0000
41.1500 0.5337 1.0000
41.1600 0.5157 1.0000
41.1700 1.0639 1.0000
41.1800 0.9516 1.0000
41.1900 0.5890 1.0000
41.2000 0.2992 1.0000
41.2100 0.0258 1.0000
41.2200 0.0784 1.0000
41.2300 0.1651 1.0000
41.2400 0.9225 1.0000
41.2500 1.5687 1.0000
41.2600 0.9952 1.0000
41.2700 0.5222 1.0000
41.2800 0.5202 1.0000
41.2900 0.5921 1.0000
41.3000 0.8681 1.0000
41.3100 0.8507 1.0000
41.3200 0.3032 1.0000
41.3300 0.2489 1.0000
41.3400 0.8065 1.0000
41.3500 1.0669 1.0000
41.3600 1.0704 1.0000
41.3700 0.7201 1.0000
41.3800 0.1590 1.0000
41.3900 0.1970 1.0000
41.4000 0.4719 1.0000
41.4100 0.7487 1.0000
41.4200 1.0260 1.0000
41.4300 0.8825 1.0000
41.4400 0.6906 1.0000
41.4500 0.5158 1.0000
41.4600 0.3681 1.0000
41.4700 0.5404 1.0000
41.4800 0.7460 1.0000
41.4900 1.1169 1.0000
41.5000 1.2276 1.0000
41.5100 0.5885 1.0000
41.5200 0.2983 1.0000
41.5300 0.6628 1.0000
41.5400 0.7086 1.0000
41.5500 0.3451 1.0000
41.5600 0.3182 1.0000
41.5700 0.5922 1.0000
41.5800 0.4714 1.0000
41.5900 0.1065 1.0000
41.6000 0.0000 1.0000
41.6100 0.0000 1.0000
41.6200 0.0000 1.0000
41.6300 0.0000 1.0000
41.6400 0.0000 1.0000
41.6500 0.0000 1.0000
41.6600 0.0892 1.0000
41.6700 0.2245 1.0000
41.6800 0.9591 1.0000
41.6900 1.5469 1.0000
41.7000 1.3588 1.0000
41.7100 1.1955 1.0000
41.7200 1.1068 1.0000
41.7300 0.8928 1.0000
41.7400 0.4349 1.0000
41.7500 0.1733 1.0000
41.7600 0.1728 1.0000
41.7700 0.2195 1.0000
41.7800 0.3099 1.0000
41.7900 0.3453 1.0000
41.8000 0.3454 1.0000
41.8100 0.3453 1.0000
41.8200 0.3452 1.0000
41.8300 0.4170 1.0000
41.8400 0.5079 1.0000
41.8500 0.7601 1.0000
41.8600 1.0343 1.0000
41.8700 0.7817 1.0000
41.8800 0.5566 1.0000
41.8900 1.0113 1.0000
41.9000 1.3413 1.0000
41.9100 0.9671 1.0000
41.9200 0.5968 1.0000
41.9300 0.2393 1.0000
41.9400 0.2145 1.0000
41.9500 0.8631 1.0000
41.9600 1.1578 1.0000
41.9700 0.9656 1.0000
41.9800 0.7769 1.0000
41.9900 0.5915 1.0000
42.0000 0.5199 1.0000
42.0100 0.5238 1.0000
42.0200 1.0943 1.0000
42.0300 1.9178 1.0000
42.0400 1.3832 1.0000
42.0500 0.4688 1.0000
42.0600 0.5862 1.0000
42.0700 0.8555 1.0000
42.0800 1.0487 1.0000
42.0900 1.2240 1.0000
42.1000 1.1283 1.0000
42.1100 1.0590 1.0000
42.1200 1.1485 1.0000
42.1300 1.1340 1.0000
42.1400 0.7750 1.0000
42.1500 0.5592 1.0000
42.1600 0.6448 1.0000
42.1700 0.5449 1.0000
42.1800 0.1810 1.0000
42.1900 0.3175 1.0000
42.2000 0.9491 1.0000
42.2100 1.3226 1.0000
42.2200 1.5188 1.0000
42.2300 1.2025 1.0000
42.2400 0.6481 1.0000
42.2500 0.3814 1.0000
42.2600 0.1991 1.0000
42.2700 0.3380 1.0000
42.2800 0.5280 1.0000
42.2900 0.4459 1.0000
42.3000 0.3546 1.0000
42.3100 0.3518 1.0000
42.3200 0.3624 1.0000
42.3300 0.4603 1.0000
42.3400 0.5340 1.0000
42.3500 0.5235 1.0000
42.3600 0.5173 1.0000
42.3700 0.5209 1.0000
42.3800 0.4124 1.0000
42.3900 0.1385 1.0000
42.4000 0.3174 1.0000
42.4100 0.9598 1.0000
42.4200 1.0122 1.0000
42.4300 0.6449 1.0000
42.4400 0.3398 1.0000
42.4500 0.0648 1.0000
42.4600 0.4841 1.0000
42.4700 1.1173 1.0000
42.4800 0.7465 1.0000
42.4900 0.2050 1.0000
42.5000 0.5224 1.0000
42.5100 0.8611 1.0000
42.5200 0.4018 1.0000
42.5300 0.0348 1.0000
42.5400 0.3127 1.0000
42.5500 0.6085 1.0000
42.5600 0.9692 1.0000
42.5700 1.1067 1.0000
42.5800 0.7364 1.0000
42.5900 0.4064 1.0000
42.6000 0.1380 1.0000
42.6100 0.0443 1.0000
42.6200 0.1354 1.0000
42.6300 0.2849 1.0000
42.6400 0.4773 1.0000
42.6500 0.3527 1.0000
42.6600 0.0692 1.0000
42.6700 0.4148 1.0000
42.6800 0.9634 1.0000
42.6900 0.5835 1.0000
42.7000 0.0349 1.0000
42.7100 0.5196 1.0000
42.7200 1.0450 1.0000
42.7300 0.4902 1.0000
42.7400 0.0320 1.0000
42.7500 0.3061 1.0000
42.7600 0.5225 1.0000
42.7700 0.5171 1.0000
42.7800 0.4335 1.0000
42.7900 0.1647 1.0000
42.8000 0.0000 1.0000
42.8100 0.0000 1.0000
42.8200 0.3980 1.0000
42.8300 1.2320 1.0000
42.8400 1.1708 1.0000
42.8500 0.4269 1.0000
42.8600 0.2957 1.0000
42.8700 0.4838 1.0000
42.8800 0.3905 1.0000
42.8900 0.2021 1.0000
42.9000 0.0963 1.0000
42.9100 0.0065 1.0000
42.9200 0.2566 1.0000
42.9300 0.5231 1.0000
42.9400 0.2466 1.0000
42.9500 0.0698 1.0000
42.9600 0.7155 1.0000
42.9700 1.1051 1.0000
42.9800 0.4594 1.0000
42.9900 0.0000 1.0000
43.0000 0.0000 1.0000
43.0100 0.1038 1.0000
43.0200 0.3780 1.0000
43.0300 0.8216 1.0000
43.0400 1.4573 1.0000
43.0500 1.5347 1.0000
43.0600 1.1715 1.0000
43.0700 0.6892 1.0000
43.0800 0.1426 1.0000
43.0900 0.0000 1.0000
43.1000 0.0000 1.0000
43.1100 0.2994 1.0000
43.1200 0.6604 1.0000
43.1300 0.7775 1.0000
43.1400 0.8742 1.0000
43.1500 1.0609 1.0000
43.1600 1.2005 1.0000
43.1700 0.9158 1.0000
43.1800 0.7892 1.0000
43.1900 1.3370 1.0000
43.2000 1.4775 1.0000
43.2100 0.5710 1.0000
43.2200 0.2030 1.0000
43.2300 0.7513 1.0000
43.2400 0.7949 1.0000
43.2500 0.2465 1.0000
43.2600 0.2035 1.0000
43.2700 0.5731 1.0000
43.2800 0.6433 1.0000
43.2900 0.5453 1.0000
43.3000 0.7145 1.0000
43.3100 0.9821 1.0000
43.3200 0.7341 1.0000
43.3300 0.3736 1.0000
43.3400 0.5201 1.0000
43.3500 0.7158 1.0000
43.3600 0.7065 1.0000
43.3700 0.6810 1.0000
43.3800 0.4941 1.0000
43.3900 0.4589 1.0000
43.4000 1.1088 1.0000
43.4100 1.3572 1.0000
43.4200 0.5288 1.0000
43.4300 0.0000 1.0000
43.4400 0.0000 1.0000
43.4500 0.2509 1.0000
43.4600 0.8062 1.0000
43.4700 0.9582 1.0000
43.4800 0.7693 1.0000
43.4900 0.8157 1.0000
43.5000 0.9991 1.0000
43.5100 1.2489 1.0000
43.5200 1.5243 1.0000
43.5300 0.9056 1.0000
43.5400 0.0804 1.0000
43.5500 0.0000 1.0000
43.5600 0.0000 1.0000
43.5700 0.0000 1.0000
43.5800 0.0685 1.0000
43.5900 0.8953 1.0000
43.6000 1.4837 1.0000
43.6100 0.9318 1.0000
43.6200 0.7411 1.0000
43.6300 1.5622 1.0000
43.6400 1.7061 1.0000
43.6500 0.6101 1.0000
43.6600 0.0404 1.0000
43.6700 0.1314 1.0000
43.6800 0.2225 1.0000
43.6900 0.3135 1.0000
43.7000 0.4104 1.0000
43.7100 0.5108 1.0000
43.7200 0.5402 1.0000
43.7300 0.5412 1.0000
43.7400 0.6095 1.0000
43.7500 0.6941 1.0000
43.7600 1.2814 1.0000
43.7700 1.9281 1.0000
43.7800 1.4792 1.0000
43.7900 1.0680 1.0000
43.8000 1.3454 1.0000
43.8100 1.4562 1.0000
43.8200 0.7212 1.0000
43.8300 0.3376 1.0000
43.8400 0.9830 1.0000
43.8500 1.2760 1.0000
43.8600 0.8993 1.0000
43.8700 0.6862 1.0000
43.8800 0.6857 1.0000
43.8900 0.8805 1.0000
43.9000 1.2519 1.0000
43.9100 1.1157 1.0000
43.9200 0.6619 1.0000
43.9300 0.3331 1.0000
43.9400 0.0566 1.0000
43.9500 0.2235 1.0000
43.9600 0.5045 1.0000
43.9700 0.2878 1.0000
43.9800 0.0068 1.0000
43.9900 0.8251 1.0000
44.0000 1.6311 1.0000
44.0100 1.8745 1.0000
44.0200 1.9684 1.0000
44.0300 1.2541 1.0000
44.0400 0.7125 1.0000
44.0500 0.7000 1.0000
44.0600 0.6622 1.0000
44.0700 0.5746 1.0000
44.0800 0.6811 1.0000
44.0900 1.0485 1.0000
44.1000 1.0385 1.0000
44.1100 0.6751 1.0000
44.1200 0.3632 1.0000
44.1300 0.0845 1.0000
44.1400 0.0000 1.0000
44.1500 0.0000 1.0000
44.1600 0.2152 1.0000
44.1700 0.4886 1.0000
44.1800 0.5283 1.0000
44.1900 0.5353 1.0000
44.2000 0.2643 1.0000
44.2100 0.0000 1.0000
44.2200 0.0000 1.0000
44.2300 0.0000 1.0000
44.2400 0.0000 1.0000
44.2500 0.1320 1.0000
44.2600 0.6873 1.0000
44.2700 0.8786 1.0000
44.2800 0.3232 1.0000
44.2900 0.0000 1.0000
44.3000 0.0000 1.0000
44.3100 0.4295 1.0000
44.3200 1.2747 1.0000
44.3300 1.4404 1.0000
44.3400 1.1500 1.0000
44.3500 1.0628 1.0000
44.3600 1.0676 1.0000
44.3700 0.8473 1.0000
44.3800 0.5631 1.0000
44.3900 0.3661 1.0000
44.4000 0.1823 1.0000
44.4100 0.1740 1.0000
44.4200 0.2091 1.0000
44.4300 0.9424 1.0000
44.4400 1.5093 1.0000
44.4500 1.0458 1.0000
44.4600 0.6891 1.0000
44.4700 0.6912 1.0000
44.4800 0.5769 1.0000
44.4900 0.2142 1.0000
44.5000 0.0000 1.0000
44.5100 0.0000 1.0000
44.5200 0.4118 1.0000
44.5300 1.2358 1.0000
44.5400 1.0878 1.0000
44.5500 0.2638 1.0000
44.5600 0.2473 1.0000
44.5700 0.6111 1.0000
44.5800 0.9134 1.0000
44.5900 1.1974 1.0000
44.6000 0.9138 1.0000
44.6100 0.5379 1.0000
44.6200 0.4315 1.0000
44.6300 0.3804 1.0000
44.6400 1.3073 1.0000
44.6500 2.0284 1.0000
44.6600 1.3807 1.0000
44.6700 0.8350 1.0000
44.6800 0.6495 1.0000
44.6900 0.4651 1.0000
44.7000 0.2832 1.0000
44.7100 0.2813 1.0000
44.7200 0.5483 1.0000
44.7300 0.6402 1.0000
44.7400 0.5505 1.0000
44.7500 0.5692 1.0000
44.7600 0.6660 1.0000
44.7700 0.5120 1.0000
44.7800 0.2352 1.0000
44.7900 0.1700 1.0000
44.8000 0.1711 1.0000
44.8100 0.5662 1.0000
44.8200 1.0299 1.0000
44.8300 0.5356 1.0000
44.8400 0.0091 1.0000
44.8500 0.2934 1.0000
44.8600 0.5082 1.0000
44.8700 0.2239 1.0000
44.8800 0.0590 1.0000
44.8900 0.3369 1.0000
44.9000 0.4742 1.0000
44.9100 0.2869 1.0000
44.9200 0.4298 1.0000
44.9300 1.0835 1.0000
44.9400 1.3227 1.0000
44.9500 1.1179 1.0000
44.9600 0.8792 1.0000
44.9700 0.6153 1.0000
44.9800 0.5285 1.0000
44.9900 0.5316 1.0000
45.0000 0.6061 1.0000
45.0100 0.7041 1.0000
45.0200 0.7811 1.0000
45.0300 0.8543 1.0000
45.0400 1.3050 1.0000
45.0500 1.7561 1.0000
45.0600 1.1066 1.0000
45.0700 0.4993 1.0000
45.0800 0.2213 1.0000
45.0900 0.1129 1.0000
45.1000 0.6667 1.0000
45.1100 1.0813 1.0000
45.1200 1.1618 1.0000
45.1300 1.0381 1.0000
45.1400 0.5870 1.0000
45.1500 0.8716 1.0000
45.1600 1.9715 1.0000
45.1700 1.8831 1.0000
45.1800 0.8775 1.0000
45.1900 0.5900 1.0000
45.2000 0.6815 1.0000
45.2100 0.4970 1.0000
45.2200 0.2179 1.0000
45.2300 0.4761 1.0000
45.2400 0.8406 1.0000
45.2500 1.2149 1.0000
45.2600 1.5802 1.0000
45.2700 1.3030 1.0000
45.2800 1.0266 1.0000
45.2900 0.7567 1.0000
45.3000 0.4844 1.0000
45.3100 0.2019 1.0000
45.3200 0.0793 1.0000
45.3300 0.3569 1.0000
45.3400 0.4259 1.0000
45.3500 0.1483 1.0000
45.3600 0.3026 1.0000
45.3700 0.9521 1.0000
45.3800 1.1813 1.0000
45.3900 1.0746 1.0000
45.4000 1.0456 1.0000
45.4100 1.0592 1.0000
45.4200 1.1184 1.0000
45.4300 1.1941 1.0000
45.4400 1.1423 1.0000
45.4500 1.0639 1.0000
45.4600 0.5499 1.0000
45.4700 0.0043 1.0000
45.4800 0.6442 1.0000
45.4900 1.1776 1.0000
45.5000 0.7171 1.0000
45.5100 0.4124 1.0000
45.5200 0.7850 1.0000
45.5300 1.0522 1.0000
45.5400 1.0442 1.0000
45.5500 0.8393 1.0000
45.5600 0.2952 1.0000
45.5700 0.4186 1.0000
45.5800 1.3338 1.0000
45.5900 1.2469 1.0000
45.6000 0.3316 1.0000
45.6100 0.0000 1.0000
45.6200 0.0000 1.0000
45.6300 0.4710 1.0000
45.6400 1.1182 1.0000
45.6500 1.0845 1.0000
45.6600 0.8993 1.0000
45.6700 1.9597 1.0000
45.6800 3.1463 1.0000
45.6900 1.7699 1.0000
45.7000 0.4951 1.0000
45.7100 0.3170 1.0000
45.7200 0.1548 1.0000
45.7300 0.0654 1.0000
45.7400 0.2943 1.0000
45.7500 1.3898 1.0000
45.7600 1.6993 1.0000
45.7700 0.6037 1.0000
45.7800 0.1217 1.0000
45.7900 0.3927 1.0000
45.8000 0.5672 1.0000
45.8100 0.6590 1.0000
45.8200 1.0983 1.0000
45.8300 1.7426 1.0000
45.8400 1.6607 1.0000
45.8500 1.2956 1.0000
45.8600 0.7799 1.0000
45.8700 0.2286 1.0000
45.8800 0.3384 1.0000
45.8900 0.5220 1.0000
45.9000 0.8058 1.0000
45.9100 1.0890 1.0000
45.9200 1.3540 1.0000
45.9300 1.5276 1.0000
45.9400 1.2549 1.0000
45.9500 1.1260 1.0000
45.9600 1.4057 1.0000
45.9700 1.3917 1.0000
45.9800 0.8330 1.0000
45.9900 0.8809 1.0000
46.0000 1.6995 1.0000
46.0100 1.5048 1.0000
46.0200 0.4138 1.0000
46.0300 0.2238 1.0000
46.0400 0.5844 1.0000
46.0500 1.0191 1.0000
46.0600 1.4841 1.0000
46.0700 1.5098 1.0000
46.0800 1.4263 1.0000
46.0900 0.7560 1.0000
46.1000 0.0139 1.0000
46.1100 0.6290 1.0000
46.1200 1.1913 1.0000
46.1300 0.7313 1.0000
46.1400 0.3748 1.0000
46.1500 0.5556 1.0000
46.1600 0.6448 1.0000
46.1700 0.4622 1.0000
46.1800 0.4686 1.0000
46.1900 0.8390 1.0000
46.2000 1.2868 1.0000
46.2100 1.8364 1.0000
46.2200 1.8592 1.0000
46.2300 1.4001 1.0000
46.2400 1.2804 1.0000
46.2500 1.3759 1.0000
46.2600 1.1459 1.0000
46.2700 0.7780 1.0000
46.2800 0.6299 1.0000
46.2900 0.5392 1.0000
46.3000 0.7647 1.0000
46.3100 1.0322 1.0000
46.3200 0.9587 1.0000
46.3300 0.8974 1.0000
46.3400 1.1610 1.0000
46.3500 1.3573 1.0000
46.3600 1.1818 1.0000
46.3700 0.9587 1.0000
46.3800 0.5876 1.0000
46.3900 0.4014 1.0000
46.4000 0.5848 1.0000
46.4100 0.6118 1.0000
46.4200 0.4259 1.0000
46.4300 0.9573 1.0000
46.4400 2.1677 1.0000
46.4500 1.8103 1.0000
46.4600 0.4242 1.0000
46.4700 0.6301 1.0000
46.4800 1.5381 1.0000
46.4900 1.8736 1.0000
46.5000 2.0514 1.0000
46.5100 1.5968 1.0000
46.5200 1.0511 1.0000
46.5300 1.0459 1.0000
46.5400 1.0495 1.0000
46.5500 0.8601 1.0000
46.5600 0.7510 1.0000
46.5700 1.1171 1.0000
46.5800 1.3564 1.0000
46.5900 1.1826 1.0000
46.6000 1.1554 1.0000
46.6100 1.4326 1.0000
46.6200 1.3630 1.0000
46.6300 0.8045 1.0000
46.6400 0.5263 1.0000
46.6500 0.5226 1.0000
46.6600 0.3587 1.0000
46.6700 0.0858 1.0000
46.6800 0.6247 1.0000
46.6900 1.5360 1.0000
46.7000 1.1735 1.0000
46.7100 0.4424 1.0000
46.7200 0.5027 1.0000
46.7300 0.6857 1.0000
46.7400 0.8766 1.0000
46.7500 1.0335 1.0000
46.7600 0.4790 1.0000
46.7700 0.0750 1.0000
46.7800 0.6261 1.0000
46.7900 1.0716 1.0000
46.8000 1.1568 1.0000
46.8100 1.1010 1.0000
46.8200 0.7407 1.0000
46.8300 0.4516 1.0000
46.8400 0.2664 1.0000
46.8500 0.4865 1.0000
46.8600 1.1174 1.0000
46.8700 1.2752 1.0000
46.8800 1.0998 1.0000
46.8900 1.2379 1.0000
46.9000 1.5254 1.0000
46.9100 1.4432 1.0000
46.9200 1.2488 1.0000
46.9300 0.6730 1.0000
46.9400 0.0336 1.0000
46.9500 0.2602 1.0000
46.9600 0.5553 1.0000
46.9700 1.3732 1.0000
46.9800 2.0525 1.0000
46.9900 1.7843 1.0000
47.0000 1.4533 1.0000
47.0100 0.8973 1.0000
47.0200 0.6007 1.0000
47.0300 0.8867 1.0000
47.0400 1.1667 1.0000
47.0500 1.4376 1.0000
47.0600 1.2185 1.0000
47.0700 0.4858 1.0000
47.0800 1.0400 1.0000
47.0900 2.5322 1.0000
47.1000 2.1514 1.0000
47.1100 0.8421 1.0000
47.1200 0.3836 1.0000
47.1300 0.1958 1.0000
47.1400 0.5532 1.0000
47.1500 1.0076 1.0000
47.1600 0.7875 1.0000
47.1700 0.5393 1.0000
47.1800 0.8168 1.0000
47.1900 1.0597 1.0000
47.2000 1.0475 1.0000
47.2100 1.0192 1.0000
47.2200 0.9299 1.0000
47.2300 0.9494 1.0000
47.2400 1.2233 1.0000
47.2500 1.3560 1.0000
47.2600 1.2679 1.0000
47.2700 1.3546 1.0000
47.2800 1.6309 1.0000
47.2900 1.9571 1.0000
47.3000 2.3210 1.0000
47.3100 2.2007 1.0000
47.3200 1.8311 1.0000
47.3300 1.6753 1.0000
47.3400 1.5907 1.0000
47.3500 1.5708 1.0000
47.3600 1.5632 1.0000
47.3700 0.8851 1.0000
47.3800 0.1930 1.0000
47.3900 1.2066 1.0000
47.4000 2.1687 1.0000
47.4100 2.7177 1.0000
47.4200 3.2695 1.0000
47.4300 3.8321 1.0000
47.4400 4.1177 1.0000
47.4500 3.7286 1.0000
47.4600 3.6592 1.0000
47.4700 4.1087 1.0000
47.4800 3.9244 1.0000
47.4900 3.0294 1.0000
47.5000 2.6802 1.0000
47.5100 2.7574 1.0000
47.5200 3.7040 1.0000
47.5300 5.1152 1.0000
47.5400 5.1864 1.0000
47.5500 4.7910 1.0000
47.5600 4.5828 1.0000
47.5700 4.4125 1.0000
47.5800 4.5451 1.0000
47.5900 4.7038 1.0000
47.6000 4.9091 1.0000
47.6100 5.0384 1.0000
47.6200 4.5012 1.0000
47.6300 4.0108 1.0000
47.6400 3.7171 1.0000
47.6500 3.7166 1.0000
47.6600 4.4604 1.0000
47.6700 4.8961 1.0000
47.6800 4.8131 1.0000
47.6900 5.1418 1.0000
47.7000 5.9482 1.0000
47.7100 6.1179 1.0000
47.7200 5.7729 1.0000
47.7300 6.4658 1.0000
47.7400 7.7346 1.0000
47.7500 7.9952 1.0000
47.7600 7.8890 1.0000
47.7700 8.0197 1.0000
47.7800 8.2012 1.0000
47.7900 7.8893 1.0000
47.8000 7.5396 1.0000
47.8100 9.5642 1.0000
47.8200 11.4439 1.0000
47.8300 11.9240 1.0000
47.8400 12.7740 1.0000
47.8500 15.2645 1.0000
47.8600 16.2082 1.0000
47.8700 13.0566 1.0000
47.8800 10.8990 1.0000
47.8900 10.4759 1.0000
47.9000 11.0594 1.0000
47.9100 12.8512 1.0000
47.9200 13.1255 1.0000
47.9300 12.1309 1.0000
47.9400 12.9591 1.0000
47.9500 14.8365 1.0000
47.9600 14.3052 1.0000
47.9700 12.8596 1.0000
47.9800 14.1567 1.0000
47.9900 16.0763 1.0000
48.0000 18.0341 1.0000
48.0100 19.9959 1.0000
48.0200 18.3427 1.0000
48.0300 16.7694 1.0000
48.0400 16.2348 1.0000
48.0500 16.0832 1.0000
48.0600 17.7302 1.0000
48.0700 18.7709 1.0000
48.0800 18.1357 1.0000
48.0900 16.7424 1.0000
48.1000 13.9767 1.0000
48.1100 12.6018 1.0000
48.1200 12.9547 1.0000
48.1300 14.3517 1.0000
48.1400 16.6521 1.0000
48.1500 16.4179 1.0000
48.1600 14.6710 1.0000
48.1700 12.2079 1.0000
48.1800 9.4614 1.0000
48.1900 10.8040 1.0000
48.2000 13.1274 1.0000
48.2100 10.5588 1.0000
48.2200 7.4264 1.0000
48.2300 8.8098 1.0000
48.2400 10.2055 1.0000
48.2500 11.0268 1.0000
48.2600 11.6673 1.0000
48.2700 11.4068 1.0000
48.2800 11.1172 1.0000
48.2900 10.7435 1.0000
48.3000 9.4785 1.0000
48.3100 6.5389 1.0000
48.3200 5.2809 1.0000
48.3300 6.1846 1.0000
48.3400 6.9110 1.0000
48.3500 7.4785 1.0000
48.3600 6.5076 1.0000
48.3700 4.5849 1.0000
48.3800 3.6413 1.0000
48.3900 3.1018 1.0000
48.4000 3.8063 1.0000
48.4100 4.8257 1.0000
48.4200 4.2545 1.0000
48.4300 3.4831 1.0000
48.4400 5.4446 1.0000
48.4500 7.1602 1.0000
48.4600 4.7101 1.0000
48.4700 2.6303 1.0000
48.4800 2.5147 1.0000
48.4900 2.6588 1.0000
48.5000 3.5870 1.0000
48.5100 3.7717 1.0000
48.5200 2.5064 1.0000
48.5300 2.1429 1.0000
48.5400 2.9795 1.0000
48.5500 3.2711 1.0000
48.5600 3.0580 1.0000
48.5700 3.4287 1.0000
48.5800 4.1738 1.0000
48.5900 3.1706 1.0000
48.6000 1.4161 1.0000
48.6100 1.1317 1.0000
48.6200 1.2389 1.0000
48.6300 2.2129 1.0000
48.6400 3.3054 1.0000
48.6500 2.7855 1.0000
48.6600 2.2776 1.0000
48.6700 2.7395 1.0000
48.6800 3.0368 1.0000
48.6900 2.4029 1.0000
48.7000 1.9663 1.0000
48.7100 2.1535 1.0000
48.7200 1.9437 1.0000
48.7300 0.9298 1.0000
48.7400 0.4594 1.0000
48.7500 0.7378 1.0000
48.7600 1.2454 1.0000
48.7700 1.9725 1.0000
48.7800 1.9341 1.0000
48.7900 1.3873 1.0000
48.8000 1.7881 1.0000
48.8100 2.6125 1.0000
48.8200 2.0036 1.0000
48.8300 0.9931 1.0000
48.8400 0.7148 1.0000
48.8500 0.5447 1.0000
48.8600 0.8015 1.0000
48.8700 1.0516 1.0000
48.8800 0.8628 1.0000
48.8900 0.7779 1.0000
48.9000 1.3232 1.0000
48.9100 1.6150 1.0000
48.9200 1.0671 1.0000
48.9300 1.0174 1.0000
48.9400 2.0169 1.0000
48.9500 2.3841 1.0000
48.9600 1.8495 1.0000
48.9700 1.4421 1.0000
48.9800 1.1607 1.0000
48.9900 0.8291 1.0000
49.0000 0.4628 1.0000
49.0100 0.2227 1.0000
49.0200 0.0412 1.0000
49.0300 1.0022 1.0000
49.0400 2.2993 1.0000
49.0500 1.7491 1.0000
49.0600 0.9052 1.0000
49.0700 1.0501 1.0000
49.0800 1.2198 1.0000
49.0900 0.8563 1.0000
49.1000 0.5764 1.0000
49.1100 0.8408 1.0000
49.1200 0.9237 1.0000
49.1300 0.3760 1.0000
49.1400 0.0870 1.0000
49.1500 0.3645 1.0000
49.1600 0.5294 1.0000
49.1700 0.5278 1.0000
49.1800 0.5729 1.0000
49.1900 0.6661 1.0000
49.2000 0.4893 1.0000
49.2100 0.1203 1.0000
49.2200 0.2488 1.0000
49.2300 0.6178 1.0000
49.2400 0.4228 1.0000
49.2500 0.0537 1.0000
49.2600 0.6333 1.0000
49.2700 1.3746 1.0000
49.2800 1.1449 1.0000
49.2900 0.8523 1.0000
49.3000 0.3978 1.0000
49.3100 0.0350 1.0000
49.3200 0.3154 1.0000
49.3300 0.4753 1.0000
49.3400 0.1949 1.0000
49.3500 0.0000 1.0000
49.3600 0.0000 1.0000
49.3700 0.1083 1.0000
49.3800 0.3823 1.0000
49.3900 0.5218 1.0000
49.4000 0.5188 1.0000
49.4100 0.3616 1.0000
49.4200 0.0906 1.0000
49.4300 0.0000 1.0000
49.4400 0.0000 1.0000
49.4500 0.2096 1.0000
49.4600 0.4869 1.0000
49.4700 0.2951 1.0000
49.4800 0.0177 1.0000
49.4900 0.3450 1.0000
49.5000 0.7014 1.0000
49.5100 0.6105 1.0000
49.5200 0.5401 1.0000
49.5300 0.6262 1.0000
49.5400 0.8260 1.0000
49.5500 1.4626 1.0000
49.5600 1.6403 1.0000
49.5700 0.7295 1.0000
49.5800 0.3840 1.0000
49.5900 0.9352 1.0000
49.6000 1.0474 1.0000
49.6100 0.6780 1.0000
49.6200 0.5224 1.0000
49.6300 0.5300 1.0000
49.6400 0.3493 1.0000
49.6500 0.0705 1.0000
49.6600 0.4055 1.0000
49.6700 0.9482 1.0000
49.6800 1.1947 1.0000
49.6900 1.3837 1.0000
49.7000 0.7187 1.0000
49.7100 0.0064 1.0000
49.7200 0.3675 1.0000
49.7300 0.6605 1.0000
49.7400 0.3903 1.0000
49.7500 0.2472 1.0000
49.7600 0.6194 1.0000
49.7700 0.9895 1.0000
49.7800 1.3545 1.0000
49.7900 1.4438 1.0000
49.8000 1.0798 1.0000
49.8100 0.7119 1.0000
49.8200 0.3394 1.0000
49.8300 0.3797 1.0000
49.8400 0.7463 1.0000
49.8500 1.1178 1.0000
49.8600 1.4921 1.0000
49.8700 1.0396 1.0000
49.8800 0.2949 1.0000
49.8900 0.4725 1.0000
49.9000 0.8403 1.0000
49.9100 0.9561 1.0000
49.9200 1.0488 1.0000
49.9300 1.0406 1.0000
49.9400 1.0342 1.0000
49.9500 1.0440 1.0000
49.9600 1.1726 1.0000
49.9700 1.8091 1.0000
49.9800 1.9863 1.0000
49.9900 0.9805 1.0000
50.0000 0.4507 1.0000
50.0100 0.7322 1.0000
50.0200 0.7986 1.0000
50.0300 0.6126 1.0000
50.0400 0.5278 1.0000
50.0500 0.5256 1.0000
50.0600 0.4063 1.0000
50.0700 0.2210 1.0000
50.0800 0.1711 1.0000
50.0900 0.1712 1.0000
50.1000 0.0977 1.0000
50.1100 0.0080 1.0000
50.1200 0.4922 1.0000
50.1300 1.0317 1.0000
50.1400 0.4913 1.0000
50.1500 0.0508 1.0000
50.1600 0.6095 1.0000
50.1700 1.0487 1.0000
50.1800 0.9476 1.0000
50.1900 0.8714 1.0000
50.2000 0.8622 1.0000
50.2100 0.7943 1.0000
50.2200 0.6226 1.0000
50.2300 0.9449 1.0000
50.2400 1.8671 1.0000
50.2500 2.2329 1.0000
50.2600 2.1281 1.0000
50.2700 1.5727 1.0000
50.2800 0.7546 1.0000
50.2900 0.5237 1.0000
50.3000 0.5189 1.0000
50.3100 0.7510 1.0000
50.3200 1.0378 1.0000
50.3300 0.5623 1.0000
50.3400 0.0043 1.0000
50.3500 1.0006 1.0000
50.3600 1.8575 1.0000
50.3700 1.0310 1.0000
50.3800 0.4121 1.0000
50.3900 0.7879 1.0000
50.4000 0.9184 1.0000
50.4100 0.3608 1.0000
50.4200 0.0000 1.0000
50.4300 0.0000 1.0000
50.4400 0.1235 1.0000
50.4500 0.4022 1.0000
50.4600 0.3837 1.0000
50.4700 0.1050 1.0000
50.4800 0.2247 1.0000
50.4900 0.5851 1.0000
50.5000 0.5585 1.0000
50.5100 0.3766 1.0000
50.5200 0.4157 1.0000
50.5300 0.5088 1.0000
50.5400 0.2760 1.0000
50.5500 0.0044 1.0000
50.5600 0.8948 1.0000
50.5700 1.6767 1.0000
50.5800 0.8625 1.0000
50.5900 0.1664 1.0000
50.6000 0.0711 1.0000
50.6100 0.1388 1.0000
50.6200 0.6844 1.0000
50.6300 0.9523 1.0000
50.6400 0.6914 1.0000
50.6500 0.4991 1.0000
50.6600 0.3960 1.0000
50.6700 0.6869 1.0000
50.6800 1.3347 1.0000
50.6900 1.5810 1.0000
50.7000 1.5758 1.0000
50.7100 1.1873 1.0000
50.7200 0.6384 1.0000
50.7300 0.5970 1.0000
50.7400 0.6863 1.0000
50.7500 1.0312 1.0000
50.7600 1.4092 1.0000
50.7700 0.6940 1.0000
50.7800 0.0000 1.0000
50.7900 0.0000 1.0000
50.8000 0.0574 1.0000
50.8100 0.4262 1.0000
50.8200 0.7497 1.0000
50.8300 0.9339 1.0000
50.8400 1.2096 1.0000
50.8500 1.6662 1.0000
50.8600 1.7338 1.0000
50.8700 1.2774 1.0000
50.8800 1.0061 1.0000
50.8900 0.9084 1.0000
50.9000 0.8706 1.0000
50.9100 0.8719 1.0000
50.9200 0.7461 1.0000
50.9300 0.5650 1.0000
50.9400 0.5279 1.0000
50.9500 0.5298 1.0000
50.9600 0.2867 1.0000
50.9700 0.0092 1.0000
50.9800 0.6235 1.0000
50.9900 1.2358 1.0000
51.0000 1.3141 1.0000
51.0100 1.2877 1.0000
51.0200 0.6550 1.0000
51.0300 0.4789 1.0000
51.0400 1.7693 1.0000
51.0500 2.4253 1.0000
51.0600 1.7788 1.0000
51.0700 1.2101 1.0000
51.0800 0.7500 1.0000
51.0900 0.6674 1.0000
51.1000 0.9508 1.0000
51.1100 0.9483 1.0000
51.1200 0.7537 1.0000
51.1300 0.5665 1.0000
51.1400 0.3827 1.0000
51.1500 0.4171 1.0000
51.1600 0.5137 1.0000
51.1700 0.7613 1.0000
51.1800 1.0318 1.0000
51.1900 0.5195 1.0000
51.2000 0.0000 1.0000
51.2100 0.0000 1.0000
51.2200 0.1642 1.0000
51.2300 1.3475 1.0000
51.2400 2.0302 1.0000
51.2500 1.0273 1.0000
51.2600 0.3750 1.0000
51.2700 0.4710 1.0000
51.2800 0.4146 1.0000
51.2900 0.1383 1.0000
51.3000 0.1374 1.0000
51.3100 0.4126 1.0000
51.3200 0.5212 1.0000
51.3300 0.5139 1.0000
51.3400 0.3295 1.0000
51.3500 0.0617 1.0000
51.3600 0.0000 1.0000
51.3700 0.0000 1.0000
51.3800 0.0000 1.0000
51.3900 0.0000 1.0000
51.4000 0.2621 1.0000
51.4100 0.5158 1.0000
51.4200 0.2399 1.0000
51.4300 0.0357 1.0000
51.4400 0.3094 1.0000
51.4500 0.6640 1.0000
51.4600 1.3043 1.0000
51.4700 1.6350 1.0000
51.4800 1.2785 1.0000
51.4900 0.8769 1.0000
51.5000 0.4078 1.0000
51.5100 0.3453 1.0000
51.5200 0.7044 1.0000
51.5300 0.5948 1.0000
51.5400 0.1472 1.0000
51.5500 0.5548 1.0000
51.5600 1.3813 1.0000
51.5700 1.1563 1.0000
51.5800 0.6017 1.0000
51.5900 0.2878 1.0000
51.6000 0.0159 1.0000
51.6100 0.0844 1.0000
51.6200 0.1741 1.0000
51.6300 0.2638 1.0000
51.6400 0.3877 1.0000
51.6500 0.7586 1.0000
51.6600 0.9726 1.0000
51.6700 0.6032 1.0000
51.6800 0.5108 1.0000
51.6900 1.0581 1.0000
51.7000 1.2490 1.0000
51.7100 0.8877 1.0000
51.7200 0.5237 1.0000
51.7300 0.1568 1.0000
51.7400 0.2138 1.0000
51.7500 0.5871 1.0000
51.7600 0.8849 1.0000
51.7700 1.1443 1.0000
51.7800 1.3620 1.0000
51.7900 1.5661 1.0000
51.8000 1.1252 1.0000
51.8100 0.5642 1.0000
51.8200 0.7793 1.0000
51.8300 1.0373 1.0000
51.8400 0.7613 1.0000
51.8500 0.5163 1.0000
51.8600 0.5137 1.0000
51.8700 0.5130 1.0000
51.8800 0.5197 1.0000
51.8900 0.5511 1.0000
51.9000 0.6419 1.0000
51.9100 0.7330 1.0000
51.9200 0.8247 1.0000
51.9300 0.8295 1.0000
51.9400 0.7379 1.0000
51.9500 0.6495 1.0000
51.9600 0.5637 1.0000
51.9700 1.1341 1.0000
51.9800 2.0512 1.0000
51.9900 1.7376 1.0000
52.0000 1.0014 1.0000
52.0100 0.8295 1.0000
52.0200 0.7694 1.0000
52.0300 1.4882 1.0000
52.0400 2.2453 1.0000
52.0500 1.3345 1.0000
52.0600 0.5285 1.0000
52.0700 0.6158 1.0000
52.0800 0.7227 1.0000
52.0900 0.9102 1.0000
52.1000 0.9905 1.0000
52.1100 0.8017 1.0000
52.1200 0.6832 1.0000
52.1300 0.6815 1.0000
52.1400 0.5564 1.0000
52.1500 0.2897 1.0000
52.1600 0.2735 1.0000
52.1700 0.4577 1.0000
52.1800 0.5212 1.0000
52.1900 0.5184 1.0000
52.2000 0.5220 1.0000
52.2100 0.5278 1.0000
52.2200 0.5289 1.0000
52.2300 0.5292 1.0000
52.2400 0.2753 1.0000
52.2500 0.0029 1.0000
52.2600 0.4558 1.0000
52.2700 0.9089 1.0000
52.2800 1.3626 1.0000
52.2900 1.6145 1.0000
52.3000 0.9871 1.0000
52.3100 0.5321 1.0000
52.3200 0.5274 1.0000
52.3300 0.5273 1.0000
52.3400 0.5352 1.0000
52.3500 0.5376 1.0000
52.3600 0.5337 1.0000
52.3700 0.5312 1.0000
52.3800 0.5297 1.0000
52.3900 0.9400 1.0000
52.4000 1.5845 1.0000
52.4100 1.1554 1.0000
52.4200 0.3241 1.0000
52.4300 0.7598 1.0000
52.4400 1.4781 1.0000
52.4500 1.3025 1.0000
52.4600 1.0362 1.0000
52.4700 0.5829 1.0000
52.4800 0.2434 1.0000
52.4900 1.0855 1.0000
52.5000 1.7256 1.0000
52.5100 1.4336 1.0000
52.5200 1.0972 1.0000
52.5300 0.6400 1.0000
52.5400 0.4821 1.0000
52.5500 0.8597 1.0000
52.5600 1.1906 1.0000
52.5700 1.4639 1.0000
52.5800 1.1415 1.0000
52.5900 0.3090 1.0000
52.6000 0.1722 1.0000
52.6100 0.4460 1.0000
52.6200 0.7194 1.0000
52.6300 0.9925 1.0000
52.6400 1.1173 1.0000
52.6500 1.2071 1.0000
52.6600 1.0541 1.0000
52.6700 0.8740 1.0000
52.6800 1.7727 1.0000
52.6900 2.5233 1.0000
52.7000 1.4294 1.0000
52.7100 0.5053 1.0000
52.7200 0.4122 1.0000
52.7300 0.4629 1.0000
52.7400 0.9230 1.0000
52.7500 1.0952 1.0000
52.7600 0.7328 1.0000
52.7700 0.5310 1.0000
52.7800 0.5334 1.0000
52.7900 0.8738 1.0000
52.8000 1.5136 1.0000
52.8100 1.4656 1.0000
52.8200 0.9967 1.0000
52.8300 0.5407 1.0000
52.8400 0.0898 1.0000
52.8500 0.6734 1.0000
52.8600 1.5144 1.0000
52.8700 1.1824 1.0000
52.8800 0.7068 1.0000
52.8900 0.6079 1.0000
52.9000 0.5034 1.0000
52.9100 0.2296 1.0000
52.9200 0.0732 1.0000
52.9300 0.5270 1.0000
52.9400 0.7986 1.0000
52.9500 0.5280 1.0000
52.9600 0.4429 1.0000
52.9700 0.7159 1.0000
52.9800 0.8704 1.0000
52.9900 0.8690 1.0000
53.0000 1.3053 1.0000
53.0100 2.1428 1.0000
53.0200 1.7317 1.0000
53.0300 0.5290 1.0000
53.0400 0.1079 1.0000
53.0500 0.0186 1.0000
53.0600 0.6554 1.0000
53.0700 1.4826 1.0000
53.0800 1.9001 1.0000
53.0900 2.2629 1.0000
53.1000 1.5589 1.0000
53.1100 0.9111 1.0000
53.1200 1.5540 1.0000
53.1300 2.2268 1.0000
53.1400 3.0653 1.0000
53.1500 3.4753 1.0000
53.1600 2.5506 1.0000
53.1700 1.6868 1.0000
53.1800 0.9447 1.0000
53.1900 0.7075 1.0000
53.2000 1.1584 1.0000
53.2100 1.6649 1.0000
53.2200 2.2241 1.0000
53.2300 2.4412 1.0000
53.2400 2.4336 1.0000
53.2500 3.0138 1.0000
53.2600 3.8536 1.0000
53.2700 2.8719 1.0000
53.2800 1.3878 1.0000
53.2900 1.7180 1.0000
53.3000 2.3100 1.0000
53.3100 2.3927 1.0000
53.3200 2.4780 1.0000
53.3300 2.9396 1.0000
53.3400 3.3192 1.0000
53.3500 3.2123 1.0000
53.3600 3.0865 1.0000
53.3700 2.8994 1.0000
53.3800 2.9471 1.0000
53.3900 3.4832 1.0000
53.4000 3.8465 1.0000
53.4100 3.9662 1.0000
53.4200 3.7508 1.0000
53.4300 3.2067 1.0000
53.4400 3.1446 1.0000
53.4500 3.4104 1.0000
53.4600 3.3745 1.0000
53.4700 3.2001 1.0000
53.4800 3.5339 1.0000
53.4900 4.0150 1.0000
53.5000 5.3268 1.0000
53.5100 6.7678 1.0000
53.5200 6.9345 1.0000
53.5300 6.9443 1.0000
53.5400 4.9126 1.0000
53.5500 3.1820 1.0000
53.5600 3.3658 1.0000
53.5700 3.8749 1.0000
53.5800 5.4982 1.0000
53.5900 6.0388 1.0000
53.6000 4.2375 1.0000
53.6100 3.6509 1.0000
53.6200 4.8393 1.0000
53.6300 4.8074 1.0000
53.6400 3.5377 1.0000
53.6500 3.6886 1.0000
53.6600 4.8407 1.0000
53.6700 5.6189 1.0000
53.6800 6.2185 1.0000
53.6900 6.8646 1.0000
53.7000 7.5249 1.0000
53.7100 7.9673 1.0000
53.7200 8.3734 1.0000
53.7300 6.6412 1.0000
53.7400 4.8668 1.0000
53.7500 5.0835 1.0000
53.7600 5.3999 1.0000
53.7700 6.3993 1.0000
53.7800 6.8440 1.0000
53.7900 5.2934 1.0000
53.8000 4.6076 1.0000
53.8100 5.8673 1.0000
53.8200 7.1145 1.0000
53.8300 8.3428 1.0000
53.8400 8.6048 1.0000
53.8500 7.8528 1.0000
53.8600 6.7469 1.0000
53.8700 5.3828 1.0000
53.8800 5.2797 1.0000
53.8900 5.8026 1.0000
53.9000 6.4719 1.0000
53.9100 7.1879 1.0000
53.9200 7.1663 1.0000
53.9300 7.0130 1.0000
53.9400 7.5268 1.0000
53.9500 8.0925 1.0000
53.9600 8.9362 1.0000
53.9700 9.4344 1.0000
53.9800 7.3738 1.0000
53.9900 5.9785 1.0000
54.0000 7.0998 1.0000
54.0100 7.4335 1.0000
54.0200 5.9226 1.0000
54.0300 5.6661 1.0000
54.0400 7.3764 1.0000
54.0500 7.2944 1.0000
54.0600 5.2667 1.0000
54.0700 4.4392 1.0000
54.0800 4.5182 1.0000
54.0900 5.2142 1.0000
54.1000 6.2284 1.0000
54.1100 6.9687 1.0000
54.1200 7.6177 1.0000
54.1300 7.1760 1.0000
54.1400 6.5267 1.0000
54.1500 7.0196 1.0000
54.1600 7.5746 1.0000
54.1700 6.9981 1.0000
54.1800 6.3821 1.0000
54.1900 5.4483 1.0000
54.2000 4.9436 1.0000
54.2100 6.1486 1.0000
54.2200 6.6568 1.0000
54.2300 5.4651 1.0000
54.2400 4.2407 1.0000
54.2500 2.9630 1.0000
54.2600 2.6333 1.0000
54.2700 3.3683 1.0000
54.2800 3.9984 1.0000
54.2900 4.5464 1.0000
54.3000 4.0699 1.0000
54.3100 3.0449 1.0000
54.3200 4.2116 1.0000
54.3300 6.1424 1.0000
54.3400 5.3967 1.0000
54.3500 4.1091 1.0000
54.3600 3.7596 1.0000
54.3700 3.4895 1.0000
54.3800 3.2022 1.0000
54.3900 2.9925 1.0000
54.4000 3.4669 1.0000
54.4100 4.1354 1.0000
54.4200 5.6199 1.0000
54.4300 6.3418 1.0000
54.4400 5.1251 1.0000
54.4500 4.6367 1.0000
54.4600 5.3752 1.0000
54.4700 5.2150 1.0000
54.4800 4.0109 1.0000
54.4900 3.6870 1.0000
54.5000 4.0754 1.0000
54.5100 3.4697 1.0000
54.5200 2.3118 1.0000
54.5300 2.5021 1.0000
54.5400 3.1835 1.0000
54.5500 3.5271 1.0000
54.5600 3.7981 1.0000
54.5700 3.7737 1.0000
54.5800 3.7234 1.0000
54.5900 4.3166 1.0000
54.6000 4.9088 1.0000
54.6100 5.4903 1.0000
54.6200 5.9307 1.0000
54.6300 5.7439 1.0000
54.6400 5.4572 1.0000
54.6500 4.9056 1.0000
54.6600 4.1503 1.0000
54.6700 3.0390 1.0000
54.6800 2.8178 1.0000
54.6900 3.6664 1.0000
54.7000 4.5369 1.0000
54.7100 5.4256 1.0000
54.7200 5.9518 1.0000
54.7300 6.2691 1.0000
54.7400 5.9473 1.0000
54.7500 5.3827 1.0000
54.7600 4.5837 1.0000
54.7700 3.7315 1.0000
54.7800 4.4084 1.0000
54.7900 5.2461 1.0000
54.8000 7.8833 1.0000
54.8100 10.2195 1.0000
54.8200 9.2229 1.0000
54.8300 8.8694 1.0000
54.8400 11.5425 1.0000
54.8500 12.2385 1.0000
54.8600 7.4621 1.0000
54.8700 4.5421 1.0000
54.8800 4.9869 1.0000
54.8900 5.6547 1.0000
54.9000 6.5996 1.0000
54.9100 7.0812 1.0000
54.9200 7.1613 1.0000
54.9300 7.9387 1.0000
54.9400 9.1328 1.0000
54.9500 10.2463 1.0000
54.9600 11.3279 1.0000
54.9700 9.9997 1.0000
54.9800 8.0923 1.0000
54.9900 7.9130 1.0000
55.0000 7.9334 1.0000
55.0100 9.4041 1.0000
55.0200 10.7451 1.0000
55.0300 10.2858 1.0000
55.0400 9.9873 1.0000
55.0500 10.4921 1.0000
55.0600 10.5728 1.0000
55.0700 9.4273 1.0000
55.0800 8.8807 1.0000
55.0900 9.4609 1.0000
55.1000 10.3491 1.0000
55.1100 11.6336 1.0000
55.1200 12.1579 1.0000
55.1300 12.0008 1.0000
55.1400 10.1192 1.0000
55.1500 7.1693 1.0000
55.1600 7.2018 1.0000
55.1700 8.4663 1.0000
55.1800 8.6431 1.0000
55.1900 8.5441 1.0000
55.2000 7.4783 1.0000
55.2100 6.2904 1.0000
55.2200 6.3809 1.0000
55.2300 6.5112 1.0000
55.2400 6.7938 1.0000
55.2500 7.0846 1.0000
55.2600 7.4194 1.0000
55.2700 7.4953 1.0000
55.2800 6.7882 1.0000
55.2900 6.7536 1.0000
55.3000 8.0323 1.0000
55.3100 8.2063 1.0000
55.3200 6.9083 1.0000
55.3300 5.9991 1.0000
55.3400 5.4504 1.0000
55.3500 5.8050 1.0000
55.3600 6.7394 1.0000
55.3700 5.8776 1.0000
55.3800 4.2431 1.0000
55.3900 3.8091 1.0000
55.4000 3.6956 1.0000
55.4100 5.3930 1.0000
55.4200 7.3387 1.0000
55.4300 5.4132 1.0000
55.4400 3.4729 1.0000
55.4500 3.2083 1.0000
55.4600 3.1343 1.0000
55.4700 4.1414 1.0000
55.4800 4.7727 1.0000
55.4900 4.2144 1.0000
55.5000 3.3285 1.0000
55.5100 1.7783 1.0000
55.5200 1.5729 1.0000
55.5300 3.2223 1.0000
55.5400 3.6537 1.0000
55.5500 2.9169 1.0000
55.5600 3.1066 1.0000
55.5700 3.9125 1.0000
55.5800 3.6653 1.0000
55.5900 2.9464 1.0000
55.6000 2.5003 1.0000
55.6100 2.1307 1.0000
55.6200 1.2906 1.0000
55.6300 0.3808 1.0000
55.6400 1.5832 1.0000
55.6500 2.8096 1.0000
55.6600 2.8998 1.0000
55.6700 2.9380 1.0000
55.6800 2.6603 1.0000
55.6900 2.3169 1.0000
55.7000 1.7551 1.0000
55.7100 1.2312 1.0000
55.7200 0.7869 1.0000
55.7300 0.9469 1.0000
55.7400 1.9699 1.0000
55.7500 2.3275 1.0000
55.7600 2.0248 1.0000
55.7700 1.6391 1.0000
55.7800 1.1963 1.0000
55.7900 1.1220 1.0000
55.8000 1.2194 1.0000
55.8100 1.0911 1.0000
55.8200 0.8964 1.0000
55.8300 1.1082 1.0000
55.8400 1.3849 1.0000
55.8500 2.0151 1.0000
55.8600 2.6113 1.0000
55.8700 2.0572 1.0000
55.8800 1.5669 1.0000
55.8900 1.4927 1.0000
55.9000 1.4736 1.0000
55.9100 1.6462 1.0000
55.9200 1.5316 1.0000
55.9300 0.7873 1.0000
55.9400 0.6779 1.0000
55.9500 1.5078 1.0000
55.9600 2.0199 1.0000
55.9700 2.2058 1.0000
55.9800 1.8553 1.0000
55.9900 1.1220 1.0000
56.0000 1.3100 1.0000
56.0100 1.9440 1.0000
56.0200 2.7991 1.0000
56.0300 3.7225 1.0000
56.0400 2.2849 1.0000
56.0500 0.4438 1.0000
56.0600 1.1980 1.0000
56.0700 2.0806 1.0000
56.0800 2.2662 1.0000
56.0900 2.3384 1.0000
56.1000 1.6131 1.0000
56.1100 0.9455 1.0000
56.1200 0.4886 1.0000
56.1300 0.2817 1.0000
56.1400 0.6449 1.0000
56.1500 0.6859 1.0000
56.1600 0.2331 1.0000
56.1700 0.1778 1.0000
56.1800 0.5443 1.0000
56.1900 0.8054 1.0000
56.2000 0.9887 1.0000
56.2100 1.2341 1.0000
56.2200 1.5107 1.0000
56.2300 1.3674 1.0000
56.2400 1.0883 1.0000
56.2500 0.8093 1.0000
56.2600 0.5304 1.0000
56.2700 0.2614 1.0000
56.2800 0.0072 1.0000
56.2900 0.2866 1.0000
56.3000 0.5335 1.0000
56.3100 0.5336 1.0000
56.3200 0.4761 1.0000
56.3300 0.1966 1.0000
56.3400 0.0799 1.0000
56.3500 0.3496 1.0000
56.3600 0.7274 1.0000
56.3700 1.2768 1.0000
56.3800 1.4387 1.0000
56.3900 1.1749 1.0000
56.4000 1.0028 1.0000
56.4100 0.9008 1.0000
56.4200 0.9215 1.0000
56.4300 1.0064 1.0000
56.4400 1.6513 1.0000
56.4500 2.4859 1.0000
56.4600 2.0800 1.0000
56.4700 1.4328 1.0000
56.4800 1.1304 1.0000
56.4900 0.8519 1.0000
56.5000 0.4017 1.0000
56.5100 0.0295 1.0000
56.5200 0.3035 1.0000
56.5300 0.5404 1.0000
56.5400 0.6267 1.0000
56.5500 0.6103 1.0000
56.5600 0.3399 1.0000
56.5700 0.5524 1.0000
56.5800 1.5595 1.0000
56.5900 1.5816 1.0000
56.6000 0.4846 1.0000
56.6100 0.0000 1.0000
56.6200 0.0000 1.0000
56.6300 0.3530 1.0000
56.6400 0.8973 1.0000
56.6500 1.2438 1.0000
56.6600 1.5203 1.0000
56.6700 1.1109 1.0000
56.6800 0.5598 1.0000
56.6900 0.8526 1.0000
56.7000 1.2201 1.0000
56.7100 1.5893 1.0000
56.7200 1.8495 1.0000
56.7300 1.1186 1.0000
56.7400 0.6478 1.0000
56.7500 1.2907 1.0000
56.7600 1.7568 1.0000
56.7700 1.7671 1.0000
56.7800 1.7725 1.0000
56.7900 1.7694 1.0000
56.8000 1.5491 1.0000
56.8100 1.0734 1.0000
56.8200 0.9205 1.0000
56.8300 1.0320 1.0000
56.8400 0.7702 1.0000
56.8500 0.2984 1.0000
56.8600 0.1722 1.0000
56.8700 0.1738 1.0000
56.8800 0.5427 1.0000
56.8900 0.9922 1.0000
56.9000 0.7899 1.0000
56.9100 0.5235 1.0000
56.9200 0.2493 1.0000
56.9300 0.0000 1.0000
56.9400 0.0000 1.0000
56.9500 0.1485 1.0000
56.9600 0.9699 1.0000
56.9700 1.4453 1.0000
56.9800 0.9898 1.0000
56.9900 0.6319 1.0000
57.0000 0.4469 1.0000
57.0100 0.3866 1.0000
57.0200 0.4779 1.0000
57.0300 0.5193 1.0000
57.0400 0.5183 1.0000
57.0500 0.6931 1.0000
57.0600 0.9705 1.0000
57.0700 1.2521 1.0000
57.0800 1.5353 1.0000
57.0900 1.3561 1.0000
57.1000 1.0697 1.0000
57.1100 0.8014 1.0000
57.1200 0.5350 1.0000
57.1300 0.5295 1.0000
57.1400 0.5719 1.0000
57.1500 1.1269 1.0000
57.1600 1.5845 1.0000
57.1700 1.5748 1.0000
57.1800 1.4244 1.0000
57.1900 0.8788 1.0000
57.2000 0.4285 1.0000
57.2100 0.1533 1.0000
57.2200 0.1615 1.0000
57.2300 0.5263 1.0000
57.2400 0.9411 1.0000
57.2500 1.3996 1.0000
57.2600 1.0594 1.0000
57.2700 0.2361 1.0000
57.2800 0.0000 1.0000
57.2900 0.0000 1.0000
57.3000 0.6630 1.0000
57.3100 1.4882 1.0000
57.3200 1.3313 1.0000
57.3300 1.0573 1.0000
57.3400 0.5106 1.0000
57.3500 0.0205 1.0000
57.3600 0.2987 1.0000
57.3700 0.5762 1.0000
57.3800 0.8504 1.0000
57.3900 1.0066 1.0000
57.4000 0.8162 1.0000
57.4100 0.6631 1.0000
57.4200 0.5810 1.0000
57.4300 0.5311 1.0000
57.4400 0.5234 1.0000
57.4500 0.7084 1.0000
57.4600 1.0684 1.0000
57.4700 1.1527 1.0000
57.4800 1.0643 1.0000
57.4900 0.8483 1.0000
57.5000 0.5789 1.0000
57.5100 0.5271 1.0000
57.5200 0.5313 1.0000
57.5300 0.5272 1.0000
57.5400 0.5220 1.0000
57.5500 0.7955 1.0000
57.5600 1.0395 1.0000
57.5700 0.7590 1.0000
57.5800 0.5224 1.0000
57.5900 0.5237 1.0000
57.6000 0.5924 1.0000
57.6100 0.8683 1.0000
57.6200 1.0506 1.0000
57.6300 1.0478 1.0000
57.6400 0.8129 1.0000
57.6500 0.2651 1.0000
57.6600 0.2829 1.0000
57.6700 0.8313 1.0000
57.6800 0.8830 1.0000
57.6900 0.6120 1.0000
57.7000 0.5310 1.0000
57.7100 0.5330 1.0000
57.7200 0.7470 1.0000
57.7300 1.0185 1.0000
57.7400 0.6469 1.0000
57.7500 0.1846 1.0000
57.7600 0.2548 1.0000
57.7700 0.3283 1.0000
57.7800 0.1511 1.0000
57.7900 0.0000 1.0000
57.8000 0.0000 1.0000
57.8100 0.0657 1.0000
57.8200 0.3429 1.0000
57.8300 0.6186 1.0000
57.8400 0.8914 1.0000
57.8500 1.0515 1.0000
57.8600 1.0543 1.0000
57.8700 0.8210 1.0000
57.8800 0.3586 1.0000
57.8900 0.5541 1.0000
57.9000 1.1925 1.0000
57.9100 0.9527 1.0000
57.9200 0.3144 1.0000
57.9300 0.2430 1.0000
57.9400 0.3334 1.0000
57.9500 0.4287 1.0000
57.9600 0.5247 1.0000
57.9700 0.2634 1.0000
57.9800 0.0133 1.0000
57.9900 0.2887 1.0000
58.0000 0.4878 1.0000
58.0100 0.2124 1.0000
58.0200 0.0000 1.0000
58.0300 0.0000 1.0000
58.0400 0.0000 1.0000
58.0500 0.0000 1.0000
58.0600 0.1111 1.0000
58.0700 0.3829 1.0000
58.0800 0.4282 1.0000
58.0900 0.2461 1.0000
58.1000 0.3869 1.0000
58.1100 0.7529 1.0000
58.1200 0.5607 1.0000
58.1300 0.1050 1.0000
58.1400 0.0000 1.0000
58.1500 0.0000 1.0000
58.1600 0.2361 1.0000
58.1700 0.5108 1.0000
58.1800 0.8754 1.0000
58.1900 1.2263 1.0000
58.2000 1.1313 1.0000
58.2100 0.9772 1.0000
58.2200 0.4281 1.0000
58.2300 0.0000 1.0000
58.2400 0.0000 1.0000
58.2500 0.0279 1.0000
58.2600 0.1176 1.0000
58.2700 0.2826 1.0000
58.2800 0.5602 1.0000
58.2900 0.9283 1.0000
58.3000 1.3902 1.0000
58.3100 1.4204 1.0000
58.3200 1.1389 1.0000
58.3300 0.8585 1.0000
58.3400 0.5785 1.0000
58.3500 0.3077 1.0000
58.3600 0.0399 1.0000
58.3700 0.0000 1.0000
58.3800 0.0000 1.0000
58.3900 0.5317 1.0000
58.4000 1.0870 1.0000
58.4100 1.3438 1.0000
58.4200 1.5037 1.0000
58.4300 0.9629 1.0000
58.4400 0.4961 1.0000
58.4500 0.3048 1.0000
58.4600 0.1442 1.0000
58.4700 0.0545 1.0000
58.4800 0.1088 1.0000
58.4900 0.3863 1.0000
58.5000 0.3962 1.0000
58.5100 0.1187 1.0000
58.5200 0.1580 1.0000
58.5300 0.4342 1.0000
58.5400 0.5297 1.0000
58.5500 0.5332 1.0000
58.5600 0.7373 1.0000
58.5700 1.0074 1.0000
58.5800 0.8189 1.0000
58.5900 0.5448 1.0000
58.6000 0.7855 1.0000
58.6100 1.0524 1.0000
58.6200 0.8594 1.0000
58.6300 0.7934 1.0000
58.6400 1.7225 1.0000
58.6500 2.2575 1.0000
58.6600 1.2478 1.0000
58.6700 0.6120 1.0000
58.6800 0.8769 1.0000
58.6900 1.0452 1.0000
58.7000 1.0583 1.0000
58.7100 0.8010 1.0000
58.7200 0.2433 1.0000
58.7300 0.2015 1.0000
58.7400 0.5590 1.0000
58.7500 0.9211 1.0000
58.7600 1.2856 1.0000
58.7700 1.0486 1.0000
58.7800 0.6047 1.0000
58.7900 0.2991 1.0000
58.8000 0.0210 1.0000
58.8100 0.0000 1.0000
58.8200 0.0054 1.0000
58.8300 0.3768 1.0000
58.8400 0.6704 1.0000
58.8500 0.2990 1.0000
58.8600 0.0000 1.0000
58.8700 0.0000 1.0000
58.8800 0.0764 1.0000
58.8900 0.3446 1.0000
58.9000 0.5467 1.0000
58.9100 0.6388 1.0000
58.9200 0.6039 1.0000
58.9300 0.4230 1.0000
58.9400 0.2430 1.0000
58.9500 0.0636 1.0000
58.9600 0.0588 1.0000
58.9700 0.1499 1.0000
58.9800 0.1715 1.0000
58.9900 0.1681 1.0000
59.0000 0.3329 1.0000
59.0100 0.5332 1.0000
59.0200 0.2862 1.0000
59.0300 0.0039 1.0000
59.0400 0.6423 1.0000
59.0500 1.2016 1.0000
59.0600 1.0180 1.0000
59.0700 0.8355 1.0000
59.0800 0.6578 1.0000
59.0900 0.5542 1.0000
59.1000 0.6449 1.0000
59.1100 0.7698 1.0000
59.1200 0.9540 1.0000
59.1300 0.8020 1.0000
59.1400 0.2501 1.0000
59.1500 0.0490 1.0000
59.1600 0.1385 1.0000
59.1700 0.3996 1.0000
59.1800 0.7585 1.0000
59.1900 0.7242 1.0000
59.2000 0.5425 1.0000
59.2100 0.5212 1.0000
59.2200 0.5358 1.0000
59.2300 0.6147 1.0000
59.2400 0.7001 1.0000
59.2500 0.6106 1.0000
59.2600 0.5042 1.0000
59.2700 0.2275 1.0000
59.2800 0.0000 1.0000
59.2900 0.0000 1.0000
59.3000 0.0734 1.0000
59.3100 0.3470 1.0000
59.3200 0.5554 1.0000
59.3300 0.6467 1.0000
59.3400 0.5334 1.0000
59.3500 0.1685 1.0000
59.3600 0.2446 1.0000
59.3700 0.6988 1.0000
59.3800 0.7507 1.0000
59.3900 0.5649 1.0000
59.4000 0.3846 1.0000
59.4100 0.2065 1.0000
59.4200 0.3174 1.0000
59.4300 0.4966 1.0000
59.4400 0.7662 1.0000
59.4500 1.0459 1.0000
59.4600 0.8637 1.0000
59.4700 0.6846 1.0000
59.4800 0.5989 1.0000
59.4900 0.5274 1.0000
59.5000 0.5248 1.0000
59.5100 0.5927 1.0000
59.5200 0.8612 1.0000
59.5300 0.8462 1.0000
59.5400 0.3038 1.0000
59.5500 0.0000 1.0000
59.5600 0.0000 1.0000
59.5700 0.1448 1.0000
59.5800 0.4179 1.0000
59.5900 0.3523 1.0000
59.6000 0.0791 1.0000
59.6100 0.0000 1.0000
59.6200 0.0000 1.0000
59.6300 0.0724 1.0000
59.6400 0.1630 1.0000
59.6500 0.2535 1.0000
59.6600 0.3440 1.0000
59.6700 0.7137 1.0000
59.6800 1.0230 1.0000
59.6900 0.4667 1.0000
59.7000 0.0595 1.0000
59.7100 0.4290 1.0000
59.7200 0.7275 1.0000
59.7300 0.8141 1.0000
59.7400 0.7155 1.0000
59.7500 0.2593 1.0000
59.7600 0.1191 1.0000
59.7700 0.3952 1.0000
59.7800 0.4307 1.0000
59.7900 0.2455 1.0000
59.8000 0.2851 1.0000
59.8100 0.4674 1.0000
59.8200 0.7146 1.0000
59.8300 0.9895 1.0000
59.8400 1.2600 1.0000
59.8500 1.5294 1.0000
59.8600 1.4065 1.0000
59.8700 1.2312 1.0000
59.8800 0.8662 1.0000
59.8900 0.5476 1.0000
59.9000 1.0071 1.0000
59.9100 1.3269 1.0000
59.9200 0.8695 1.0000
59.9300 0.5890 1.0000
59.9400 0.8602 1.0000
59.9500 1.0096 1.0000
59.9600 0.9147 1.0000
59.9700 0.7842 1.0000
59.9800 0.6049 1.0000
59.9900 0.3786 1.0000
60.0000 0.1076 1.0000
60.0100 0.3330 1.0000
60.0200 0.8850 1.0000
60.0300 1.2496 1.0000
60.0400 1.5314 1.0000
60.0500 0.9391 1.0000
60.0600 0.1054 1.0000
60.0700 0.0000 1.0000
60.0800 0.0000 1.0000
60.0900 0.0000 1.0000
60.1000 0.0298 1.0000
60.1100 0.5822 1.0000
60.1200 1.0285 1.0000
60.1300 0.8449 1.0000
60.1400 0.6822 1.0000
60.1500 0.5875 1.0000
60.1600 0.4346 1.0000
60.1700 0.1605 1.0000
60.1800 0.1115 1.0000
60.1900 0.3805 1.0000
60.2000 0.5174 1.0000
60.2100 0.5246 1.0000
60.2200 0.3633 1.0000
60.2300 0.0870 1.0000
60.2400 0.3685 1.0000
60.2500 0.9065 1.0000
60.2600 0.8242 1.0000
60.2700 0.5619 1.0000
60.2800 0.5364 1.0000
60.2900 0.5479 1.0000
60.3000 1.0607 1.0000
60.3100 1.5352 1.0000
60.3200 0.7118 1.0000
60.3300 0.0491 1.0000
60.3400 0.4109 1.0000
60.3500 0.7129 1.0000
60.3600 0.8100 1.0000
60.3700 0.7597 1.0000
60.3800 0.3903 1.0000
60.3900 0.4689 1.0000
60.4000 1.2029 1.0000
60.4100 1.4382 1.0000
60.4200 1.1670 1.0000
60.4300 1.1518 1.0000
60.4400 1.3172 1.0000
60.4500 1.3795 1.0000
60.4600 1.3925 1.0000
60.4700 1.4734 1.0000
60.4800 1.5750 1.0000
60.4900 1.1071 1.0000
60.5000 0.5439 1.0000
60.5100 0.2592 1.0000
60.5200 0.0438 1.0000
60.5300 1.2286 1.0000
60.5400 2.2395 1.0000
60.5500 2.0560 1.0000
60.5600 1.7535 1.0000
60.5700 1.0224 1.0000
60.5800 0.5141 1.0000
60.5900 0.5079 1.0000
60.6000 0.5808 1.0000
60.6100 0.7737 1.0000
60.6200 0.7815 1.0000
60.6300 0.5947 1.0000
60.6400 0.5693 1.0000
60.6500 0.6618 1.0000
60.6600 0.6353 1.0000
60.6700 0.5497 1.0000
60.6800 0.5373 1.0000
60.6900 0.5484 1.0000
60.7000 0.3058 1.0000
60.7100 0.0177 1.0000
60.7200 0.0000 1.0000
60.7300 0.0000 1.0000
60.7400 0.0000 1.0000
60.7500 0.0328 1.0000
60.7600 0.3091 1.0000
60.7700 0.4889 1.0000
60.7800 0.3031 1.0000
60.7900 0.2816 1.0000
60.8000 0.6452 1.0000
60.8100 0.8322 1.0000
60.8200 0.7420 1.0000
60.8300 0.5207 1.0000
60.8400 0.1567 1.0000
60.8500 0.4708 1.0000
60.8600 1.2978 1.0000
60.8700 1.2749 1.0000
60.8800 0.8132 1.0000
60.8900 0.6272 1.0000
60.9000 0.5334 1.0000
60.9100 0.6038 1.0000
60.9200 0.7054 1.0000
60.9300 1.5534 1.0000
60.9400 2.4247 1.0000
60.9500 1.6915 1.0000
60.9600 1.0598 1.0000
60.9700 1.2467 1.0000
60.9800 1.3062 1.0000
60.9900 0.8566 1.0000
61.0000 0.6183 1.0000
61.0100 0.8959 1.0000
61.0200 0.9239 1.0000
61.0300 0.5458 1.0000
61.0400 0.4309 1.0000
61.0500 0.6119 1.0000
61.0600 0.8009 1.0000
61.0700 0.9961 1.0000
61.0800 1.0555 1.0000
61.0900 1.0422 1.0000
61.1000 1.1078 1.0000
61.1100 1.2009 1.0000
61.1200 1.1451 1.0000
61.1300 1.0591 1.0000
61.1400 0.7113 1.0000
61.1500 0.3467 1.0000
61.1600 0.4404 1.0000
61.1700 0.4967 1.0000
61.1800 0.2220 1.0000
61.1900 0.1056 1.0000
61.2000 0.6557 1.0000
61.2100 1.0499 1.0000
61.2200 1.0473 1.0000
61.2300 0.8419 1.0000
61.2400 0.2944 1.0000
61.2500 0.2134 1.0000
61.2600 0.6751 1.0000
61.2700 1.3899 1.0000
61.2800 2.3097 1.0000
61.2900 2.4076 1.0000
61.3000 2.0482 1.0000
61.3100 2.0593 1.0000
61.3200 2.2057 1.0000
61.3300 1.7200 1.0000
61.3400 1.0983 1.0000
61.3500 0.7903 1.0000
61.3600 0.5136 1.0000
61.3700 0.7002 1.0000
61.3800 0.8530 1.0000
61.3900 0.6764 1.0000
61.4000 0.5484 1.0000
61.4100 0.6368 1.0000
61.4200 0.6739 1.0000
61.4300 0.5748 1.0000
61.4400 0.7467 1.0000
61.4500 1.3930 1.0000
61.4600 1.5810 1.0000
61.4700 1.2173 1.0000
61.4800 1.1984 1.0000
61.4900 1.4684 1.0000
61.5000 1.3359 1.0000
61.5100 0.9712 1.0000
61.5200 0.9432 1.0000
61.5300 1.0434 1.0000
61.5400 1.5204 1.0000
61.5500 2.0832 1.0000
61.5600 1.6227 1.0000
61.5700 1.0543 1.0000
61.5800 0.8707 1.0000
61.5900 0.7584 1.0000
61.6000 1.3930 1.0000
61.6100 1.8881 1.0000
61.6200 1.7256 1.0000
61.6300 1.4555 1.0000
61.6400 0.8872 1.0000
61.6500 0.5559 1.0000
61.6600 0.6548 1.0000
61.6700 0.7889 1.0000
61.6800 0.9669 1.0000
61.6900 0.9018 1.0000
61.7000 0.6260 1.0000
61.7100 1.2148 1.0000
61.7200 2.3210 1.0000
61.7300 2.3646 1.0000
61.7400 1.9863 1.0000
61.7500 1.5423 1.0000
61.7600 1.0826 1.0000
61.7700 1.1307 1.0000
61.7800 1.2377 1.0000
61.7900 1.2330 1.0000
61.8000 1.2629 1.0000
61.8100 1.7296 1.0000
61.8200 2.0400 1.0000
61.8300 1.5681 1.0000
61.8400 1.0768 1.0000
61.8500 0.5292 1.0000
61.8600 0.6161 1.0000
61.8700 1.8980 1.0000
61.8800 2.3823 1.0000
61.8900 1.8387 1.0000
61.9000 1.7707 1.0000
61.9100 2.1294 1.0000
61.9200 2.5416 1.0000
61.9300 2.9868 1.0000
61.9400 3.0016 1.0000
61.9500 2.8382 1.0000
61.9600 3.2181 1.0000
61.9700 3.7360 1.0000
61.9800 3.1653 1.0000
61.9900 2.4568 1.0000
62.0000 2.2594 1.0000
62.0100 2.0808 1.0000
62.0200 2.0013 1.0000
62.0300 1.8905 1.0000
62.0400 1.6128 1.0000
62.0500 1.5370 1.0000
62.0600 2.0723 1.0000
62.0700 2.7108 1.0000
62.0800 3.5512 1.0000
62.0900 3.9480 1.0000
62.1000 3.7529 1.0000
62.1100 4.0023 1.0000
62.1200 4.6642 1.0000
62.1300 4.0282 1.0000
62.1400 2.5580 1.0000
62.1500 1.6623 1.0000
62.1600 1.0140 1.0000
62.1700 1.8945 1.0000
62.1800 3.1837 1.0000
62.1900 3.3354 1.0000
62.2000 3.3306 1.0000
62.2100 4.2127 1.0000
62.2200 4.9109 1.0000
62.2300 2.2570 1.0000
62.2400 0.2335 1.0000
62.2500 1.7947 1.0000
62.2600 3.1157 1.0000
62.2700 3.6754 1.0000
62.2800 3.8427 1.0000
62.2900 3.2131 1.0000
62.3000 2.6828 1.0000
62.3100 2.2896 1.0000
62.3200 2.8503 1.0000
62.3300 4.3271 1.0000
62.3400 4.5455 1.0000
62.3500 3.9261 1.0000
62.3600 3.0825 1.0000
62.3700 2.1384 1.0000
62.3800 2.9924 1.0000
62.3900 4.3519 1.0000
62.4000 4.3778 1.0000
62.4100 4.2058 1.0000
62.4200 3.4929 1.0000
62.4300 2.8325 1.0000
62.4400 3.5599 1.0000
62.4500 4.3677 1.0000
62.4600 5.6643 1.0000
62.4700 6.4674 1.0000
62.4800 5.6300 1.0000
62.4900 4.9118 1.0000
62.5000 4.4455 1.0000
62.5100 3.9511 1.0000
62.5200 3.4165 1.0000
62.5300 3.9412 1.0000
62.5400 5.5181 1.0000
62.5500 6.5458 1.0000
62.5600 7.1946 1.0000
62.5700 5.9497 1.0000
62.5800 3.8217 1.0000
62.5900 4.7508 1.0000
62.6000 6.5823 1.0000
62.6100 6.4197 1.0000
62.6200 5.9384 1.0000
62.6300 5.9251 1.0000
62.6400 5.9692 1.0000
62.6500 6.7777 1.0000
62.6600 7.2490 1.0000
62.6700 5.5160 1.0000
62.6800 4.0933 1.0000
62.6900 3.7531 1.0000
62.7000 3.8637 1.0000
62.7100 4.9638 1.0000
62.7200 5.7974 1.0000
62.7300 6.2364 1.0000
62.7400 7.0582 1.0000
62.7500 8.2734 1.0000
62.7600 8.4574 1.0000
62.7700 7.9048 1.0000
62.7800 7.6013 1.0000
62.7900 7.4185 1.0000
62.8000 6.5853 1.0000
62.8100 5.5508 1.0000
62.8200 5.0821 1.0000
62.8300 4.7103 1.0000
62.8400 4.5201 1.0000
62.8500 4.3411 1.0000
62.8600 4.1740 1.0000
62.8700 3.9587 1.0000
62.8800 3.4035 1.0000
62.8900 2.9828 1.0000
62.9000 3.0553 1.0000
62.9100 3.1110 1.0000
62.9200 3.1280 1.0000
62.9300 3.5936 1.0000
62.9400 4.7473 1.0000
62.9500 4.8735 1.0000
62.9600 3.9078 1.0000
62.9700 3.7057 1.0000
62.9800 4.0682 1.0000
62.9900 4.5868 1.0000
63.0000 5.1841 1.0000
63.0100 3.7124 1.0000
63.0200 1.5699 1.0000
63.0300 2.3288 1.0000
63.0400 3.6185 1.0000
63.0500 4.1932 1.0000
63.0600 4.6957 1.0000
63.0700 4.3281 1.0000
63.0800 3.8780 1.0000
63.0900 2.7979 1.0000
63.1000 1.9592 1.0000
63.1100 2.0517 1.0000
63.1200 2.1428 1.0000
63.1300 2.2307 1.0000
63.1400 2.9260 1.0000
63.1500 4.5869 1.0000
63.1600 4.4437 1.0000
63.1700 2.3168 1.0000
63.1800 1.5550 1.0000
63.1900 1.8383 1.0000
63.2000 1.6257 1.0000
63.2100 1.1537 1.0000
63.2200 1.4489 1.0000
63.2300 2.0042 1.0000
63.2400 1.8731 1.0000
63.2500 1.6082 1.0000
63.2600 1.1497 1.0000
63.2700 0.6953 1.0000
63.2800 1.3433 1.0000
63.2900 1.9315 1.0000
63.3000 2.0227 1.0000
63.3100 1.9889 1.0000
63.3200 1.4469 1.0000
63.3300 1.1396 1.0000
63.3400 1.4138 1.0000
63.3500 1.5848 1.0000
63.3600 1.5859 1.0000
63.3700 1.4954 1.0000
63.3800 1.3007 1.0000
63.3900 1.3180 1.0000
63.4000 1.5034 1.0000
63.4100 1.0954 1.0000
63.4200 0.3652 1.0000
63.4300 0.1068 1.0000
63.4400 0.0156 1.0000
63.4500 0.2281 1.0000
63.4600 0.5035 1.0000
63.4700 0.6149 1.0000
63.4800 0.7124 1.0000
63.4900 0.8894 1.0000
63.5000 1.0588 1.0000
63.5100 1.1581 1.0000
63.5200 1.2022 1.0000
63.5300 1.0096 1.0000
63.5400 0.8212 1.0000
63.5500 0.6439 1.0000
63.5600 0.8010 1.0000
63.5700 1.5297 1.0000
63.5800 1.5441 1.0000
63.5900 0.7178 1.0000
63.6000 0.4453 1.0000
63.6100 0.6266 1.0000
63.6200 0.6331 1.0000
63.6300 0.5411 1.0000
63.6400 0.5233 1.0000
63.6500 0.5328 1.0000
63.6600 1.0561 1.0000
63.6700 1.6921 1.0000
63.6800 1.4184 1.0000
63.6900 1.0548 1.0000
63.7000 0.5024 1.0000
63.7100 0.0081 1.0000
63.7200 0.0978 1.0000
63.7300 0.1720 1.0000
63.7400 0.1753 1.0000
63.7500 0.1526 1.0000
63.7600 0.0595 1.0000
63.7700 0.1000 1.0000
63.7800 0.3771 1.0000
63.7900 0.6490 1.0000
63.8000 0.9143 1.0000
63.8100 0.9433 1.0000
63.8200 0.7716 1.0000
63.8300 0.6488 1.0000
63.8400 0.5544 1.0000
63.8500 0.7223 1.0000
63.8600 0.9914 1.0000
63.8700 0.5993 1.0000
63.8800 0.0537 1.0000
63.8900 0.2428 1.0000
63.9000 0.5122 1.0000
63.9100 0.7920 1.0000
63.9200 1.0645 1.0000
63.9300 1.2532 1.0000
63.9400 1.4404 1.0000
63.9500 1.6199 1.0000
63.9600 1.6587 1.0000
63.9700 1.3014 1.0000
63.9800 0.8726 1.0000
63.9900 0.3124 1.0000
64.0000 0.2432 1.0000
64.0100 0.7930 1.0000
64.0200 0.9476 1.0000
64.0300 0.7556 1.0000
64.0400 0.6367 1.0000
64.0500 0.5621 1.0000
64.0600 0.6056 1.0000
64.0700 0.6966 1.0000
64.0800 0.8619 1.0000
64.0900 1.0453 1.0000
64.1000 0.8961 1.0000
64.1100 0.7070 1.0000
64.1200 1.0578 1.0000
64.1300 1.3578 1.0000
64.1400 0.9019 1.0000
64.1500 0.5662 1.0000
64.1600 0.8453 1.0000
64.1700 1.0511 1.0000
64.1800 1.0409 1.0000
64.1900 0.8480 1.0000
64.2000 0.3065 1.0000
64.2100 0.1203 1.0000
64.2200 0.3975 1.0000
64.2300 0.3842 1.0000
64.2400 0.1069 1.0000
64.2500 0.0000 1.0000
64.2600 0.0000 1.0000
64.2700 0.1938 1.0000
64.2800 0.4688 1.0000
64.2900 1.0329 1.0000
64.3000 1.6717 1.0000
64.3100 1.3437 1.0000
64.3200 0.8897 1.0000
64.3300 0.5175 1.0000
64.3400 0.1655 1.0000
64.3500 0.0758 1.0000
64.3600 0.0431 1.0000
64.3700 0.3211 1.0000
64.3800 0.5294 1.0000
64.3900 0.5234 1.0000
64.4000 0.5168 1.0000
64.4100 0.5092 1.0000
64.4200 0.6291 1.0000
64.4300 0.9210 1.0000
64.4400 1.0616 1.0000
64.4500 1.0602 1.0000
64.4600 0.8940 1.0000
64.4700 0.6205 1.0000
64.4800 0.6554 1.0000
64.4900 0.8251 1.0000
64.5000 0.7922 1.0000
64.5100 0.7042 1.0000
64.5200 0.6172 1.0000
64.5300 0.5302 1.0000
64.5400 0.2605 1.0000
64.5500 0.0155 1.0000
64.5600 0.2899 1.0000
64.5700 0.5237 1.0000
64.5800 0.5219 1.0000
64.5900 0.5227 1.0000
64.6000 0.5314 1.0000
64.6100 0.4453 1.0000
64.6200 0.1640 1.0000
64.6300 0.1131 1.0000
64.6400 0.3842 1.0000
64.6500 0.5225 1.0000
64.6600 0.5318 1.0000
64.6700 0.3680 1.0000
64.6800 0.0876 1.0000
64.6900 0.4370 1.0000
64.7000 1.0727 1.0000
64.7100 0.9305 1.0000
64.7200 0.5658 1.0000
64.7300 0.3627 1.0000
64.7400 0.1843 1.0000
64.7500 0.2655 1.0000
64.7600 0.3447 1.0000
64.7700 0.1595 1.0000
64.7800 0.0506 1.0000
64.7900 0.4171 1.0000
64.8000 0.6777 1.0000
64.8100 0.5806 1.0000
64.8200 0.5469 1.0000
64.8300 0.6490 1.0000
64.8400 0.6311 1.0000
64.8500 0.4393 1.0000
64.8600 0.4770 1.0000
64.8700 0.7453 1.0000
64.8800 0.9671 1.0000
64.8900 1.1564 1.0000
64.9000 1.1590 1.0000
64.9100 1.0734 1.0000
64.9200 0.6293 1.0000
64.9300 0.0776 1.0000
64.9400 0.3060 1.0000
64.9500 0.6620 1.0000
64.9600 0.3419 1.0000
64.9700 0.0000 1.0000
64.9800 0.0000 1.0000
64.9900 0.0000 1.0000
65.0000 0.0000 1.0000
65.0100 0.0610 1.0000
65.0200 0.3382 1.0000
65.0300 0.6164 1.0000
65.0400 0.8971 1.0000
65.0500 0.9517 1.0000
65.0600 0.6676 1.0000
65.0700 0.6767 1.0000
65.0800 0.9907 1.0000
65.0900 0.9896 1.0000
65.1000 0.7609 1.0000
65.1100 0.9990 1.0000
65.1200 1.4664 1.0000
65.1300 1.4289 1.0000
65.1400 1.2328 1.0000
65.1500 0.6673 1.0000
65.1600 0.0372 1.0000
65.1700 0.0000 1.0000
65.1800 0.0000 1.0000
65.1900 0.0000 1.0000
65.2000 0.0000 1.0000
65.2100 0.0000 1.0000
65.2200 0.0584 1.0000
65.2300 0.3345 1.0000
65.2400 0.5275 1.0000
65.2500 0.5281 1.0000
65.2600 0.4552 1.0000
65.2700 0.2682 1.0000
65.2800 0.3884 1.0000
65.2900 0.8391 1.0000
65.3000 0.8243 1.0000
65.3100 0.4611 1.0000
65.3200 0.2211 1.0000
65.3300 0.0439 1.0000
65.3400 0.2090 1.0000
65.3500 0.4867 1.0000
65.3600 0.2965 1.0000
65.3700 0.0187 1.0000
65.3800 0.5126 1.0000
65.3900 1.0457 1.0000
65.4000 0.8644 1.0000
65.4100 0.7147 1.0000
65.4200 0.8138 1.0000
65.4300 0.7979 1.0000
65.4400 0.3304 1.0000
65.4500 0.1071 1.0000
65.4600 0.4723 1.0000
65.4700 0.7659 1.0000
65.4800 0.9440 1.0000
65.4900 0.9980 1.0000
65.5000 0.9139 1.0000
65.5100 0.7748 1.0000
65.5200 0.5930 1.0000
65.5300 0.7080 1.0000
65.5400 0.9801 1.0000
65.5500 1.0536 1.0000
65.5600 1.0585 1.0000
65.5700 0.5968 1.0000
65.5800 0.0421 1.0000
65.5900 0.0000 1.0000
65.6000 0.0052 1.0000
65.6100 0.3726 1.0000
65.6200 0.6918 1.0000
65.6300 0.5988 1.0000
65.6400 0.5057 1.0000
65.6500 0.4127 1.0000
65.6600 0.3977 1.0000
65.6700 0.5790 1.0000
65.6800 0.7639 1.0000
65.6900 0.9549 1.0000
65.7000 0.7997 1.0000
65.7100 0.2463 1.0000
65.7200 0.0000 1.0000
65.7300 0.0000 1.0000
65.7400 0.0000 1.0000
65.7500 0.0000 1.0000
65.7600 0.6066 1.0000
65.7700 1.4316 1.0000
65.7800 0.8946 1.0000
65.7900 0.0696 1.0000
65.8000 0.0000 1.0000
65.8100 0.0016 1.0000
65.8200 0.2721 1.0000
65.8300 0.6038 1.0000
65.8400 1.5120 1.0000
65.8500 2.0823 1.0000
65.8600 1.1748 1.0000
65.8700 0.5200 1.0000
65.8800 0.5277 1.0000
65.8900 0.4304 1.0000
65.9000 0.1516 1.0000
65.9100 0.0000 1.0000
65.9200 0.0000 1.0000
65.9300 0.3011 1.0000
65.9400 0.8520 1.0000
65.9500 0.7014 1.0000
65.9600 0.1505 1.0000
65.9700 0.2012 1.0000
65.9800 0.4781 1.0000
65.9900 0.5286 1.0000
66.0000 0.5284 1.0000
66.0100 0.5216 1.0000
66.0200 0.5142 1.0000
66.0300 0.7982 1.0000
66.0400 1.0097 1.0000
66.0500 0.4557 1.0000
66.0600 0.0966 1.0000
66.0700 0.6408 1.0000
66.0800 1.0660 1.0000
66.0900 1.1656 1.0000
66.1000 1.1328 1.0000
66.1100 0.8622 1.0000
66.1200 0.6260 1.0000
66.1300 0.4322 1.0000
66.1400 0.3949 1.0000
66.1500 0.4921 1.0000
66.1600 0.5266 1.0000
66.1700 0.5241 1.0000
66.1800 0.3265 1.0000
66.1900 0.0525 1.0000
66.2000 0.5112 1.0000
66.2100 1.1435 1.0000
66.2200 1.2946 1.0000
66.2300 1.3915 1.0000
66.2400 1.4881 1.0000
66.2500 1.5119 1.0000
66.2600 0.6861 1.0000
66.2700 0.0000 1.0000
66.2800 0.0000 1.0000
66.2900 0.0000 1.0000
66.3000 0.0000 1.0000
66.3100 0.0966 1.0000
66.3200 0.3729 1.0000
66.3300 0.4063 1.0000
66.3400 0.1300 1.0000
66.3500 0.1437 1.0000
66.3600 0.4149 1.0000
66.3700 0.5211 1.0000
66.3800 0.5260 1.0000
66.3900 0.7300 1.0000
66.4000 1.0153 1.0000
66.4100 0.8416 1.0000
66.4200 0.5533 1.0000
66.4300 0.2785 1.0000
66.4400 0.0054 1.0000
66.4500 0.0000 1.0000
66.4600 0.0000 1.0000
66.4700 0.0000 1.0000
66.4800 0.0000 1.0000
66.4900 0.0000 1.0000
66.5000 0.0688 1.0000
66.5100 0.3432 1.0000
66.5200 0.5226 1.0000
66.5300 0.5185 1.0000
66.5400 0.5187 1.0000
66.5500 0.5243 1.0000
66.5600 0.8150 1.0000
66.5700 1.3674 1.0000
66.5800 1.1313 1.0000
66.5900 0.3938 1.0000
66.6000 0.2983 1.0000
66.6100 0.4758 1.0000
66.6200 0.7364 1.0000
66.6300 1.0188 1.0000
66.6400 0.5664 1.0000
66.6500 0.0155 1.0000
66.6600 0.4381 1.0000
66.6700 0.8441 1.0000
66.6800 0.5741 1.0000
66.6900 0.3177 1.0000
66.7000 0.1369 1.0000
66.7100 0.0673 1.0000
66.7200 0.3451 1.0000
66.7300 0.5594 1.0000
66.7400 0.6462 1.0000
66.7500 0.6195 1.0000
66.7600 0.4376 1.0000
66.7700 0.3979 1.0000
66.7800 0.4934 1.0000
66.7900 0.5883 1.0000
66.8000 0.6829 1.0000
66.8100 0.5763 1.0000
66.8200 0.3805 1.0000
66.8300 0.1994 1.0000
66.8400 0.0224 1.0000
66.8500 0.2352 1.0000
66.8600 0.5045 1.0000
66.8700 1.0511 1.0000
66.8800 1.5390 1.0000
66.8900 0.8033 1.0000
66.9000 0.2654 1.0000
66.9100 0.9057 1.0000
66.9200 1.3530 1.0000
66.9300 1.1686 1.0000
66.9400 0.8668 1.0000
66.9500 0.3202 1.0000
66.9600 0.1099 1.0000
66.9700 0.3753 1.0000
66.9800 0.3730 1.0000
66.9900 0.1076 1.0000
67.0000 0.3288 1.0000
67.0100 0.8819 1.0000
67.0200 1.2306 1.0000
67.0300 1.4852 1.0000
67.0400 1.1308 1.0000
67.0500 0.5993 1.0000
67.0600 0.2886 1.0000
67.0700 0.0124 1.0000
67.0800 0.2653 1.0000
67.0900 0.5179 1.0000
67.1000 0.2402 1.0000
67.1100 0.0000 1.0000
67.1200 0.0000 1.0000
67.1300 0.0833 1.0000
67.1400 0.4529 1.0000
67.1500 0.5892 1.0000
67.1600 0.2196 1.0000
67.1700 0.2228 1.0000
67.1800 0.7721 1.0000
67.1900 0.7766 1.0000
67.2000 0.2274 1.0000
67.2100 0.0530 1.0000
67.2200 0.1435 1.0000
67.2300 0.2341 1.0000
67.2400 0.3246 1.0000
67.2500 0.2070 1.0000
67.2600 0.0260 1.0000
67.2700 0.0000 1.0000
67.2800 0.0000 1.0000
67.2900 0.5251 1.0000
67.3000 1.0492 1.0000
67.3100 0.7681 1.0000
67.3200 0.5235 1.0000
67.3300 0.5300 1.0000
67.3400 0.4939 1.0000
67.3500 0.3038 1.0000
67.3600 0.4272 1.0000
67.3700 1.2575 1.0000
67.3800 1.5716 1.0000
67.3900 1.1022 1.0000
67.4000 0.7768 1.0000
67.4100 0.6028 1.0000
67.4200 0.6867 1.0000
67.4300 0.9593 1.0000
67.4400 0.8620 1.0000
67.4500 0.5806 1.0000
67.4600 0.3770 1.0000
67.4700 0.1981 1.0000
67.4800 0.0950 1.0000
67.4900 0.0055 1.0000
67.5000 0.5301 1.0000
67.5100 1.0789 1.0000
67.5200 1.0713 1.0000
67.5300 1.0306 1.0000
67.5400 0.7434 1.0000
67.5500 0.7097 1.0000
67.5600 1.6382 1.0000
67.5700 2.1511 1.0000
67.5800 1.6879 1.0000
67.5900 1.2283 1.0000
67.6000 0.7742 1.0000
67.6100 0.4028 1.0000
67.6200 0.1213 1.0000
67.6300 0.0000 1.0000
67.6400 0.0000 1.0000
67.6500 0.0000 1.0000
67.6600 0.0000 1.0000
67.6700 0.0000 1.0000
67.6800 0.0000 1.0000
67.6900 0.4673 1.0000
67.7000 1.0240 1.0000
67.7100 0.5457 1.0000
67.7200 0.0128 1.0000
67.7300 0.6600 1.0000
67.7400 1.1850 1.0000
67.7500 0.7196 1.0000
67.7600 0.4385 1.0000
67.7700 0.8949 1.0000
67.7800 1.1114 1.0000
67.7900 0.7413 1.0000
67.8000 0.5117 1.0000
67.8100 0.5112 1.0000
67.8200 0.5162 1.0000
67.8300 0.5277 1.0000
67.8400 0.6817 1.0000
67.8500 0.9476 1.0000
67.8600 0.7087 1.0000
67.8700 0.1988 1.0000
67.8800 0.4519 1.0000
67.8900 0.9719 1.0000
67.9000 1.5150 1.0000
67.9100 2.0628 1.0000
67.9200 1.3408 1.0000
67.9300 0.5280 1.0000
67.9400 1.2705 1.0000
67.9500 1.8709 1.0000
67.9600 1.2124 1.0000
67.9700 0.7156 1.0000
67.9800 0.9014 1.0000
67.9900 1.0412 1.0000
68.0000 1.0639 1.0000
68.0100 0.8682 1.0000
68.0200 0.3037 1.0000
68.0300 0.3854 1.0000
68.0400 1.2197 1.0000
68.0500 1.1327 1.0000
68.0600 0.2984 1.0000
68.0700 0.2352 1.0000
68.0800 0.6014 1.0000
68.0900 0.8287 1.0000
68.1000 1.0053 1.0000
68.1100 0.8251 1.0000
68.1200 0.5679 1.0000
68.1300 0.4503 1.0000
68.1400 0.3479 1.0000
68.1500 0.8970 1.0000
68.1600 1.3357 1.0000
68.1700 0.6968 1.0000
68.1800 0.4105 1.0000
68.1900 1.6970 1.0000
68.2000 2.2796 1.0000
68.2100 0.9902 1.0000
68.2200 0.4741 1.0000
68.2300 1.3130 1.0000
68.2400 1.4746 1.0000
68.2500 0.8201 1.0000
68.2600 0.9812 1.0000
68.2700 1.8270 1.0000
68.2800 1.9601 1.0000
68.2900 1.6815 1.0000
68.3000 1.5193 1.0000
68.3100 1.4015 1.0000
68.3200 1.2383 1.0000
68.3300 1.0648 1.0000
68.3400 1.0485 1.0000
68.3500 1.0490 1.0000
68.3600 1.2333 1.0000
68.3700 1.3713 1.0000
68.3800 0.9963 1.0000
68.3900 0.7188 1.0000
68.4000 0.9024 1.0000
68.4100 1.0424 1.0000
68.4200 1.0616 1.0000
68.4300 1.0063 1.0000
68.4400 0.8157 1.0000
68.4500 1.0339 1.0000
68.4600 1.7616 1.0000
68.4700 2.0559 1.0000
68.4800 1.9740 1.0000
68.4900 1.9958 1.0000
68.5000 2.0799 1.0000
68.5100 1.3795 1.0000
68.5200 0.3673 1.0000
68.5300 0.0986 1.0000
68.5400 0.0093 1.0000
68.5500 0.3337 1.0000
68.5600 0.7062 1.0000
68.5700 2.0684 1.0000
68.5800 3.2692 1.0000
68.5900 2.3365 1.0000
68.6000 1.6372 1.0000
68.6100 2.1086 1.0000
68.6200 2.2011 1.0000
68.6300 1.1945 1.0000
68.6400 0.8515 1.0000
68.6500 1.7604 1.0000
68.6600 2.3479 1.0000
68.6700 2.5207 1.0000
68.6800 2.4131 1.0000
68.6900 2.0536 1.0000
68.7000 1.4651 1.0000
68.7100 0.7344 1.0000
68.7200 0.3277 1.0000
68.7300 0.0553 1.0000
68.7400 0.3707 1.0000
68.7500 0.8357 1.0000
68.7600 0.8789 1.0000
68.7700 0.8686 1.0000
68.7800 0.7825 1.0000
68.7900 0.7998 1.0000
68.8000 2.2677 1.0000
68.8100 3.3867 1.0000
68.8200 2.6430 1.0000
68.8300 2.1752 1.0000
68.8400 2.5443 1.0000
68.8500 2.5117 1.0000
68.8600 1.6920 1.0000
68.8700 1.4202 1.0000
68.8800 1.8801 1.0000
68.8900 2.2922 1.0000
68.9000 2.6600 1.0000
68.9100 3.2568 1.0000
68.9200 4.0010 1.0000
68.9300 4.0259 1.0000
68.9400 3.7405 1.0000
68.9500 3.1043 1.0000
68.9600 2.3742 1.0000
68.9700 2.9438 1.0000
68.9800 3.6926 1.0000
68.9900 2.4483 1.0000
69.0000 1.2403 1.0000
69.0100 1.6221 1.0000
69.0200 2.0565 1.0000
69.0300 2.7903 1.0000
69.0400 2.9287 1.0000
69.0500 1.1754 1.0000
69.0600 0.3650 1.0000
69.0700 1.4727 1.0000
69.0800 1.9956 1.0000
69.0900 1.7099 1.0000
69.1000 1.3814 1.0000
69.1100 1.0119 1.0000
69.1200 0.8589 1.0000
69.1300 0.8503 1.0000
69.1400 1.2412 1.0000
69.1500 1.8115 1.0000
69.1600 2.2958 1.0000
69.1700 2.7560 1.0000
69.1800 2.7315 1.0000
69.1900 2.6348 1.0000
69.2000 2.0997 1.0000
69.2100 1.5606 1.0000
69.2200 1.2851 1.0000
69.2300 1.1537 1.0000
69.2400 1.9011 1.0000
69.2500 2.4785 1.0000
69.2600 2.4900 1.0000
69.2700 2.2825 1.0000
69.2800 1.6119 1.0000
69.2900 1.0283 1.0000
69.3000 0.5691 1.0000
69.3100 0.8034 1.0000
69.3200 1.7274 1.0000
69.3300 1.6190 1.0000
69.3400 0.7976 1.0000
69.3500 0.9711 1.0000
69.3600 1.6093 1.0000
69.3700 1.5332 1.0000
69.3800 1.2458 1.0000
69.3900 1.1310 1.0000
69.4000 1.0438 1.0000
69.4100 1.2162 1.0000
69.4200 1.3899 1.0000
69.4300 1.2963 1.0000
69.4400 1.3500 1.0000
69.4500 2.3692 1.0000
69.4600 3.0603 1.0000
69.4700 2.6047 1.0000
69.4800 2.1998 1.0000
69.4900 1.9066 1.0000
69.5000 1.9895 1.0000
69.5100 2.6300 1.0000
69.5200 2.5507 1.0000
69.5300 1.7310 1.0000
69.5400 0.9651 1.0000
69.5500 0.2377 1.0000
69.5600 0.3688 1.0000
69.5700 0.9168 1.0000
69.5800 0.6282 1.0000
69.5900 0.0803 1.0000
69.6000 0.2314 1.0000
69.6100 0.5025 1.0000
69.6200 1.2973 1.0000
69.6300 2.0678 1.0000
69.6400 1.2483 1.0000
69.6500 0.5408 1.0000
69.6600 0.6258 1.0000
69.6700 0.6925 1.0000
69.6800 0.6922 1.0000
69.6900 0.6633 1.0000
69.7000 0.5689 1.0000
69.7100 0.4418 1.0000
69.7200 0.2643 1.0000
69.7300 0.6623 1.0000
69.7400 1.6726 1.0000
69.7500 2.1582 1.0000
69.7600 2.2553 1.0000
69.7700 1.9489 1.0000
69.7800 1.4388 1.0000
69.7900 1.4324 1.0000
69.8000 1.5896 1.0000
69.8100 1.8380 1.0000
69.8200 2.1032 1.0000
69.8300 1.6811 1.0000
69.8400 1.2483 1.0000
69.8500 2.2393 1.0000
69.8600 3.0969 1.0000
69.8700 2.9321 1.0000
69.8800 2.4996 1.0000
69.8900 1.0329 1.0000
69.9000 0.2731 1.0000
69.9100 1.1965 1.0000
69.9200 1.7947 1.0000
69.9300 1.8754 1.0000
69.9400 2.5676 1.0000
69.9500 3.9332 1.0000
69.9600 3.9111 1.0000
69.9700 2.8256 1.0000
69.9800 2.1480 1.0000
69.9900 1.6840 1.0000
70.0000 2.6556 1.0000
70.0100 4.1149 1.0000
70.0200 3.9381 1.0000
70.0300 3.4417 1.0000
70.0400 2.5897 1.0000
70.0500 1.7338 1.0000
70.0600 2.2843 1.0000
70.0700 2.7178 1.0000
70.0800 2.1745 1.0000
70.0900 1.9203 1.0000
70.1000 2.8435 1.0000
70.1100 3.1076 1.0000
70.1200 1.7359 1.0000
70.1300 1.0896 1.0000
70.1400 1.6398 1.0000
70.1500 1.7147 1.0000
70.1600 1.2483 1.0000
70.1700 1.7640 1.0000
70.1800 3.0586 1.0000
70.1900 3.5594 1.0000
70.2000 3.6288 1.0000
70.2100 2.9172 1.0000
70.2200 1.9282 1.0000
70.2300 3.1455 1.0000
70.2400 4.8207 1.0000
70.2500 4.0107 1.0000
70.2600 2.9942 1.0000
70.2700 3.7266 1.0000
70.2800 4.2965 1.0000
70.2900 3.3803 1.0000
70.3000 2.7744 1.0000
70.3100 3.5029 1.0000
70.3200 3.8263 1.0000
70.3300 3.1017 1.0000
70.3400 2.4715 1.0000
70.3500 2.0027 1.0000
70.3600 1.8932 1.0000
70.3700 2.2070 1.0000
70.3800 2.4801 1.0000
70.3900 2.7197 1.0000
70.4000 3.0425 1.0000
70.4100 3.4122 1.0000
70.4200 3.6285 1.0000
70.4300 3.7881 1.0000
70.4400 4.4501 1.0000
70.4500 5.2228 1.0000
70.4600 4.0911 1.0000
70.4700 2.7707 1.0000
70.4800 2.4070 1.0000
70.4900 2.1511 1.0000
70.5000 2.9847 1.0000
70.5100 3.6044 1.0000
70.5200 3.2511 1.0000
70.5300 2.9422 1.0000
70.5400 2.7536 1.0000
70.5500 2.5275 1.0000
70.5600 2.2350 1.0000
70.5700 2.0735 1.0000
70.5800 2.0717 1.0000
70.5900 1.8364 1.0000
70.6000 1.4029 1.0000
70.6100 1.5260 1.0000
70.6200 1.9748 1.0000
70.6300 1.7086 1.0000
70.6400 1.1658 1.0000
70.6500 0.6117 1.0000
70.6600 0.0549 1.0000
70.6700 0.9876 1.0000
70.6800 2.0834 1.0000
70.6900 1.2873 1.0000
70.7000 0.5401 1.0000
70.7100 0.5269 1.0000
70.7200 0.5166 1.0000
70.7300 0.5204 1.0000
70.7400 0.6928 1.0000
70.7500 1.3404 1.0000
70.7600 1.5672 1.0000
70.7700 1.0197 1.0000
70.7800 0.6307 1.0000
70.7900 0.4419 1.0000
70.8000 0.4015 1.0000
70.8100 0.4916 1.0000
70.8200 0.3543 1.0000
70.8300 0.0791 1.0000
70.8400 0.5904 1.0000
70.8500 1.4191 1.0000
70.8600 1.1358 1.0000
70.8700 0.5793 1.0000
70.8800 0.7692 1.0000
70.8900 1.0487 1.0000
70.9000 0.5113 1.0000
70.9100 0.0066 1.0000
70.9200 0.0971 1.0000
70.9300 0.3416 1.0000
70.9400 1.3750 1.0000
70.9500 2.0456 1.0000
70.9600 1.6473 1.0000
70.9700 1.3220 1.0000
70.9800 1.1363 1.0000
70.9900 1.3499 1.0000
71.0000 2.0847 1.0000
71.0100 2.0593 1.0000
71.0200 1.3428 1.0000
71.0300 0.7235 1.0000
71.0400 0.1652 1.0000
71.0500 0.1968 1.0000
71.0600 0.4762 1.0000
71.0700 0.3118 1.0000
71.0800 0.0323 1.0000
71.0900 0.2472 1.0000
71.1000 0.5268 1.0000
71.1100 0.2615 1.0000
71.1200 0.0000 1.0000
71.1300 0.0000 1.0000
71.1400 0.0869 1.0000
71.1500 0.6482 1.0000
71.1600 0.9565 1.0000
71.1700 0.4852 1.0000
71.1800 0.2019 1.0000
71.1900 0.2918 1.0000
71.2000 0.3854 1.0000
71.2100 0.4840 1.0000
71.2200 0.3883 1.0000
71.2300 0.1098 1.0000
71.2400 0.0000 1.0000
71.2500 0.0000 1.0000
71.2600 0.4446 1.0000
71.2700 1.0837 1.0000
71.2800 1.1468 1.0000
71.2900 1.0529 1.0000
71.3000 0.5637 1.0000
71.3100 0.0185 1.0000
71.3200 0.0000 1.0000
71.3300 0.0000 1.0000
71.3400 0.0000 1.0000
71.3500 0.0131 1.0000
71.3600 0.1026 1.0000
71.3700 0.1922 1.0000
71.3800 0.2817 1.0000
71.3900 0.4644 1.0000
71.4000 0.8393 1.0000
71.4100 0.8271 1.0000
71.4200 0.2731 1.0000
71.4300 0.0451 1.0000
71.4400 0.1341 1.0000
71.4500 0.2231 1.0000
71.4600 0.3121 1.0000
71.4700 0.4635 1.0000
71.4800 0.6433 1.0000
71.4900 0.4052 1.0000
71.5000 0.0474 1.0000
71.5100 0.2337 1.0000
71.5200 0.5031 1.0000
71.5300 0.5225 1.0000
71.5400 0.5215 1.0000
71.5500 0.3331 1.0000
71.5600 0.1831 1.0000
71.5700 0.2725 1.0000
71.5800 0.4261 1.0000
71.5900 0.7967 1.0000
71.6000 0.9657 1.0000
71.6100 0.7028 1.0000
71.6200 0.5430 1.0000
71.6300 0.5327 1.0000
71.6400 0.5711 1.0000
71.6500 0.6585 1.0000
71.6600 0.5865 1.0000
71.6700 0.4031 1.0000
71.6800 0.5961 1.0000
71.6900 0.9671 1.0000
71.7000 0.6290 1.0000
71.7100 0.0777 1.0000
71.7200 0.0768 1.0000
71.7300 0.1662 1.0000
71.7400 0.0859 1.0000
71.7500 0.0000 1.0000
71.7600 0.0000 1.0000
71.7700 0.0000 1.0000
71.7800 0.0000 1.0000
71.7900 0.0195 1.0000
71.8000 0.1080 1.0000
71.8100 0.2247 1.0000
71.8200 0.4041 1.0000
71.8300 0.4771 1.0000
71.8400 0.3907 1.0000
71.8500 0.3957 1.0000
71.8600 0.4959 1.0000
71.8700 0.3745 1.0000
71.8800 0.0929 1.0000
71.8900 0.0000 1.0000
71.9000 0.0000 1.0000
71.9100 0.2078 1.0000
71.9200 0.4811 1.0000
71.9300 0.2895 1.0000
71.9400 0.0162 1.0000
71.9500 0.0857 1.0000
71.9600 0.1797 1.0000
71.9700 0.3657 1.0000
71.9800 0.4956 1.0000
71.9900 0.2186 1.0000
72.0000 0.0189 1.0000
72.0100 0.1082 1.0000
72.0200 0.2515 1.0000
72.0300 0.5198 1.0000
72.0400 0.6131 1.0000
72.0500 0.4341 1.0000
72.0600 0.5658 1.0000
72.0700 1.0320 1.0000
72.0800 0.9686 1.0000
72.0900 0.5085 1.0000
72.1000 0.2903 1.0000
72.1100 0.1956 1.0000
72.1200 0.3744 1.0000
72.1300 0.6435 1.0000
72.1400 0.6098 1.0000
72.1500 0.5194 1.0000
72.1600 0.9378 1.0000
72.1700 1.3729 1.0000
72.1800 0.9200 1.0000
72.1900 0.4977 1.0000
72.2000 0.3166 1.0000
72.2100 0.2094 1.0000
72.2200 0.3931 1.0000
72.2300 0.5258 1.0000
72.2400 0.5352 1.0000
72.2500 0.4670 1.0000
72.2600 0.2738 1.0000
72.2700 0.3452 1.0000
72.2800 0.7114 1.0000
72.2900 0.7700 1.0000
72.3000 0.5900 1.0000
72.3100 0.5260 1.0000
72.3200 0.5236 1.0000
72.3300 0.5240 1.0000
72.3400 0.5255 1.0000
72.3500 0.5961 1.0000
72.3600 0.6805 1.0000
72.3700 0.7772 1.0000
72.3800 0.8672 1.0000
72.3900 0.4098 1.0000
72.4000 0.0000 1.0000
72.4100 0.0000 1.0000
72.4200 0.1051 1.0000
72.4300 0.6462 1.0000
72.4400 0.8796 1.0000
72.4500 0.3385 1.0000
72.4600 0.2064 1.0000
72.4700 0.7577 1.0000
72.4800 1.0565 1.0000
72.4900 1.0646 1.0000
72.5000 0.9618 1.0000
72.5100 0.7702 1.0000
72.5200 0.4650 1.0000
72.5300 0.0974 1.0000
72.5400 0.0000 1.0000
72.5500 0.0000 1.0000
72.5600 0.0000 1.0000
72.5700 0.0000 1.0000
72.5800 0.2485 1.0000
72.5900 0.5185 1.0000
72.6000 0.5230 1.0000
72.6100 0.5094 1.0000
72.6200 0.3242 1.0000
72.6300 0.1740 1.0000
72.6400 0.1768 1.0000
72.6500 0.3563 1.0000
72.6600 0.9994 1.0000
72.6700 1.2373 1.0000
72.6800 0.7734 1.0000
72.6900 0.6922 1.0000
72.7000 1.0671 1.0000
72.7100 1.0329 1.0000
72.7200 0.6590 1.0000
72.7300 0.6393 1.0000
72.7400 0.8220 1.0000
72.7500 0.7434 1.0000
72.7600 0.5665 1.0000
72.7700 0.5322 1.0000
72.7800 0.5299 1.0000
72.7900 0.3593 1.0000
72.8000 0.1715 1.0000
72.8100 0.9869 1.0000
72.8200 1.6706 1.0000
72.8300 0.9415 1.0000
72.8400 0.4062 1.0000
72.8500 0.7697 1.0000
72.8600 0.9627 1.0000
72.8700 0.6889 1.0000
72.8800 0.4169 1.0000
72.8900 0.1483 1.0000
72.9000 0.1647 1.0000
72.9100 0.5327 1.0000
72.9200 0.7530 1.0000
72.9300 0.8462 1.0000
72.9400 0.7646 1.0000
72.9500 0.5794 1.0000
72.9600 0.3944 1.0000
72.9700 0.2095 1.0000
72.9800 0.5494 1.0000
72.9900 1.0137 1.0000
73.0000 0.8110 1.0000
73.0100 0.5328 1.0000
73.0200 0.3448 1.0000
73.0300 0.2014 1.0000
73.0400 0.5679 1.0000
73.0500 0.8415 1.0000
73.0600 0.6581 1.0000
73.0700 0.5226 1.0000
73.0800 0.5246 1.0000
73.0900 0.4931 1.0000
73.1000 0.3990 1.0000
73.1100 0.7158 1.0000
73.1200 1.5571 1.0000
73.1300 1.4117 1.0000
73.1400 0.3891 1.0000
73.1500 0.3466 1.0000
73.1600 0.9062 1.0000
73.1700 0.6716 1.0000
73.1800 0.1120 1.0000
73.1900 0.0732 1.0000
73.2000 0.1647 1.0000
73.2100 0.5811 1.0000
73.2200 1.0378 1.0000
73.2300 1.0405 1.0000
73.2400 1.0156 1.0000
73.2500 0.7476 1.0000
73.2600 0.4936 1.0000
73.2700 0.3127 1.0000
73.2800 0.1539 1.0000
73.2900 0.0612 1.0000
73.3000 0.1253 1.0000
73.3100 0.4931 1.0000
73.3200 0.7412 1.0000
73.3300 0.8308 1.0000
73.3400 0.7788 1.0000
73.3500 0.5965 1.0000
73.3600 0.7505 1.0000
73.3700 1.1186 1.0000
73.3800 0.9689 1.0000
73.3900 0.5986 1.0000
73.4000 0.8864 1.0000
73.4100 1.3476 1.0000
73.4200 1.0776 1.0000
73.4300 0.7092 1.0000
73.4400 0.6090 1.0000
73.4500 0.5225 1.0000
73.4600 0.5241 1.0000
73.4700 0.5245 1.0000
73.4800 0.5182 1.0000
73.4900 0.4483 1.0000
73.5000 0.1795 1.0000
73.5100 0.0292 1.0000
73.5200 0.1170 1.0000
73.5300 0.3255 1.0000
73.5400 0.6989 1.0000
73.5500 0.9296 1.0000
73.5600 1.0246 1.0000
73.5700 0.8987 1.0000
73.5800 0.6272 1.0000
73.5900 0.5374 1.0000
73.6000 0.5281 1.0000
73.6100 0.3105 1.0000
73.6200 0.0350 1.0000
73.6300 0.4812 1.0000
73.6400 1.0324 1.0000
73.6500 1.6733 1.0000
73.6600 2.2393 1.0000
73.6700 1.4127 1.0000
73.6800 0.7290 1.0000
73.6900 0.8992 1.0000
73.7000 0.9246 1.0000
73.7100 0.4748 1.0000
73.7200 0.4052 1.0000
73.7300 1.1299 1.0000
73.7400 1.4456 1.0000
73.7500 1.1822 1.0000
73.7600 0.9107 1.0000
73.7700 0.6315 1.0000
73.7800 0.5188 1.0000
73.7900 0.5198 1.0000
73.8000 0.7703 1.0000
73.8100 1.1359 1.0000
73.8200 1.2947 1.0000
73.8300 1.3933 1.0000
73.8400 1.0848 1.0000
73.8500 0.7125 1.0000
73.8600 1.0509 1.0000
73.8700 1.4108 1.0000
73.8800 1.5096 1.0000
73.8900 1.5196 1.0000
73.9000 0.9610 1.0000
73.9100 0.5268 1.0000
73.9200 0.5207 1.0000
73.9300 0.6055 1.0000
73.9400 0.8879 1.0000
73.9500 1.0586 1.0000
73.9600 1.0656 1.0000
73.9700 1.0687 1.0000
73.9800 1.0678 1.0000
73.9900 1.0599 1.0000
74.0000 1.0471 1.0000
74.0100 0.9217 1.0000
74.0200 0.7423 1.0000
74.0300 0.6274 1.0000
74.0400 0.5323 1.0000
74.0500 0.8339 1.0000
74.0600 1.2022 1.0000
74.0700 1.1313 1.0000
74.0800 1.0489 1.0000
74.0900 1.3272 1.0000
74.1000 1.5935 1.0000
74.1100 1.7763 1.0000
74.1200 1.8220 1.0000
74.1300 1.3716 1.0000
74.1400 1.2277 1.0000
74.1500 1.7762 1.0000
74.1600 1.6690 1.0000
74.1700 0.5658 1.0000
74.1800 0.3147 1.0000
74.1900 0.9609 1.0000
74.2000 1.0675 1.0000
74.2100 0.7788 1.0000
74.2200 0.8706 1.0000
74.2300 1.1520 1.0000
74.2400 1.0103 1.0000
74.2500 0.7332 1.0000
74.2600 1.1587 1.0000
74.2700 1.7104 1.0000
74.2800 1.6604 1.0000
74.2900 1.5678 1.0000
74.3000 1.3802 1.0000
74.3100 1.2367 1.0000
74.3200 1.4217 1.0000
74.3300 1.5513 1.0000
74.3400 1.4704 1.0000
74.3500 1.3019 1.0000
74.3600 0.9272 1.0000
74.3700 0.6599 1.0000
74.3800 0.5617 1.0000
74.3900 0.9083 1.0000
74.4000 1.7395 1.0000
74.4100 1.5243 1.0000
74.4200 0.5158 1.0000
74.4300 0.4733 1.0000
74.4400 0.9310 1.0000
74.4500 1.6711 1.0000
74.4600 2.5058 1.0000
74.4700 2.4905 1.0000
74.4800 2.3124 1.0000
74.4900 2.1146 1.0000
74.5000 1.9067 1.0000
74.5100 1.2638 1.0000
74.5200 0.7116 1.0000
74.5300 0.8951 1.0000
74.5400 1.1326 1.0000
74.5500 1.5860 1.0000
74.5600 1.8040 1.0000
74.5700 1.4453 1.0000
74.5800 1.2283 1.0000
74.5900 1.2425 1.0000
74.6000 1.3725 1.0000
74.6100 1.6329 1.0000
74.6200 1.6409 1.0000
74.6300 1.4507 1.0000
74.6400 1.7998 1.0000
74.6500 2.4387 1.0000
74.6600 3.9704 1.0000
74.6700 5.8148 1.0000
74.6800 4.3769 1.0000
74.6900 2.2702 1.0000
74.7000 1.5927 1.0000
74.7100 1.0491 1.0000
74.7200 1.5060 1.0000
74.7300 1.9279 1.0000
74.7400 2.0380 1.0000
74.7500 2.0906 1.0000
74.7600 1.9005 1.0000
74.7700 1.8106 1.0000
74.7800 1.9768 1.0000
74.7900 2.3234 1.0000
74.8000 2.9755 1.0000
74.8100 3.2411 1.0000
74.8200 3.0561 1.0000
74.8300 3.2698 1.0000
74.8400 3.8073 1.0000
74.8500 3.8981 1.0000
74.8600 3.7397 1.0000
74.8700 3.4790 1.0000
74.8800 3.1808 1.0000
74.8900 4.3659 1.0000
74.9000 5.8718 1.0000
74.9100 5.1395 1.0000
74.9200 4.1960 1.0000
74.9300 4.6753 1.0000
74.9400 5.0066 1.0000
74.9500 3.8896 1.0000
74.9600 3.0914 1.0000
74.9700 3.7183 1.0000
74.9800 3.9822 1.0000
74.9900 3.2790 1.0000
75.0000 2.8588 1.0000
75.0100 2.9349 1.0000
75.0200 3.8889 1.0000
75.0300 5.9019 1.0000
75.0400 5.7248 1.0000
75.0500 3.7071 1.0000
75.0600 3.4394 1.0000
75.0700 4.1840 1.0000
75.0800 3.3983 1.0000
75.0900 2.0281 1.0000
75.1000 2.6428 1.0000
75.1100 3.7117 1.0000
75.1200 4.1421 1.0000
75.1300 4.5047 1.0000
75.1400 4.0811 1.0000
75.1500 3.7109 1.0000
75.1600 3.9719 1.0000
75.1700 4.1254 1.0000
75.1800 3.7701 1.0000
75.1900 3.4337 1.0000
75.2000 3.1498 1.0000
75.2100 2.9043 1.0000
75.2200 2.7287 1.0000
75.2300 3.1649 1.0000
75.2400 4.3646 1.0000
75.2500 4.2227 1.0000
75.2600 2.9142 1.0000
75.2700 2.2019 1.0000
75.2800 1.8471 1.0000
75.2900 1.8918 1.0000
75.3000 2.0955 1.0000
75.3100 1.6047 1.0000
75.3200 0.9461 1.0000
75.3300 0.8732 1.0000
75.3400 0.8687 1.0000
75.3500 2.1441 1.0000
75.3600 3.3044 1.0000
75.3700 2.8316 1.0000
75.3800 2.5464 1.0000
75.3900 3.2045 1.0000
75.4000 3.9259 1.0000
75.4100 4.8311 1.0000
75.4200 5.1071 1.0000
75.4300 4.1946 1.0000
75.4400 3.1581 1.0000
75.4500 1.9615 1.0000
75.4600 1.3442 1.0000
75.4700 1.2478 1.0000
75.4800 1.2715 1.0000
75.4900 1.3698 1.0000
75.5000 1.4598 1.0000
75.5100 1.5463 1.0000
75.5200 1.3454 1.0000
75.5300 1.0713 1.0000
75.5400 2.0055 1.0000
75.5500 3.0935 1.0000
75.5600 2.8416 1.0000
75.5700 2.5539 1.0000
75.5800 2.2058 1.0000
75.5900 1.8133 1.0000
75.6000 1.1834 1.0000
75.6100 0.9397 1.0000
75.6200 1.8695 1.0000
75.6300 2.2929 1.0000
75.6400 1.7233 1.0000
75.6500 1.5481 1.0000
75.6600 1.9003 1.0000
75.6700 1.5086 1.0000
75.6800 0.4247 1.0000
75.6900 0.5011 1.0000
75.7000 1.3250 1.0000
75.7100 1.3222 1.0000
75.7200 0.9622 1.0000
75.7300 2.1031 1.0000
75.7400 3.6469 1.0000
75.7500 3.1085 1.0000
75.7600 2.2824 1.0000
75.7700 1.3803 1.0000
75.7800 0.5781 1.0000
75.7900 1.4116 1.0000
75.8000 2.0916 1.0000
75.8100 1.8940 1.0000
75.8200 1.8288 1.0000
75.8300 2.1848 1.0000
75.8400 2.3355 1.0000
75.8500 2.0682 1.0000
75.8600 2.1071 1.0000
75.8700 2.5697 1.0000
75.8800 2.8904 1.0000
75.8900 3.0744 1.0000
75.9000 2.5418 1.0000
75.9100 1.5308 1.0000
75.9200 0.9651 1.0000
75.9300 0.5996 1.0000
75.9400 0.8035 1.0000
75.9500 1.1680 1.0000
75.9600 1.6086 1.0000
75.9700 2.0606 1.0000
75.9800 2.0994 1.0000
75.9900 2.0962 1.0000
76.0000 1.6225 1.0000
76.0100 1.3083 1.0000
76.0200 1.9699 1.0000
76.0300 2.4786 1.0000
76.0400 2.4778 1.0000
76.0500 2.6225 1.0000
76.0600 3.0752 1.0000
76.0700 2.8863 1.0000
76.0800 1.7776 1.0000
76.0900 1.4471 1.0000
76.1000 1.8915 1.0000
76.1100 1.8631 1.0000
76.1200 1.5077 1.0000
76.1300 1.1462 1.0000
76.1400 0.7818 1.0000
76.1500 1.3354 1.0000
76.1600 2.1609 1.0000
76.1700 2.4440 1.0000
76.1800 2.6400 1.0000
76.1900 1.8568 1.0000
76.2000 1.0513 1.0000
76.2100 0.8678 1.0000
76.2200 0.6596 1.0000
76.2300 0.2886 1.0000
76.2400 0.2031 1.0000
76.2500 1.1169 1.0000
76.2600 1.6025 1.0000
76.2700 1.1451 1.0000
76.2800 0.7969 1.0000
76.2900 0.6108 1.0000
76.3000 0.8837 1.0000
76.3100 1.6292 1.0000
76.3200 2.1042 1.0000
76.3300 2.3856 1.0000
76.3400 1.9820 1.0000
76.3500 1.2455 1.0000
76.3600 1.4777 1.0000
76.3700 2.0107 1.0000
76.3800 1.4651 1.0000
76.3900 0.7340 1.0000
76.4000 1.2965 1.0000
76.4100 1.8970 1.0000
76.4200 1.3471 1.0000
76.4300 0.8996 1.0000
76.4400 1.1783 1.0000
76.4500 1.3178 1.0000
76.4600 0.9457 1.0000
76.4700 1.0778 1.0000
76.4800 2.3650 1.0000
76.4900 2.7458 1.0000
76.5000 1.7326 1.0000
76.5100 1.0384 1.0000
76.5200 0.6842 1.0000
76.5300 0.6868 1.0000
76.5400 0.9540 1.0000
76.5500 0.6806 1.0000
76.5600 0.1341 1.0000
76.5700 0.4844 1.0000
76.5800 1.1264 1.0000
76.5900 1.1571 1.0000
76.6000 1.0753 1.0000
76.6100 0.6312 1.0000
76.6200 0.1780 1.0000
76.6300 0.3585 1.0000
76.6400 0.5077 1.0000
76.6500 0.4157 1.0000
76.6600 0.3639 1.0000
76.6700 0.4680 1.0000
76.6800 0.5376 1.0000
76.6900 0.5252 1.0000
76.7000 0.5911 1.0000
76.7100 0.7820 1.0000
76.7200 0.7477 1.0000
76.7300 0.4652 1.0000
76.7400 0.5986 1.0000
76.7500 1.0510 1.0000
76.7600 0.9854 1.0000
76.7700 0.6481 1.0000
76.7800 0.3428 1.0000
76.7900 0.0482 1.0000
76.8000 0.2253 1.0000
76.8100 0.4948 1.0000
76.8200 1.1083 1.0000
76.8300 1.7235 1.0000
76.8400 0.8132 1.0000
76.8500 0.0000 1.0000
76.8600 0.0000 1.0000
76.8700 0.0541 1.0000
76.8800 0.3291 1.0000
76.8900 0.6061 1.0000
76.9000 0.8881 1.0000
76.9100 0.9226 1.0000
76.9200 0.5482 1.0000
76.9300 0.6908 1.0000
76.9400 1.4231 1.0000
76.9500 1.2879 1.0000
76.9600 0.4638 1.0000
76.9700 0.4138 1.0000
76.9800 0.7850 1.0000
76.9900 0.6089 1.0000
77.0000 0.2381 1.0000
77.0100 0.0987 1.0000
77.0200 0.0075 1.0000
77.0300 0.2521 1.0000
77.0400 0.5223 1.0000
77.0500 0.2477 1.0000
77.0600 0.0000 1.0000
77.0700 0.0000 1.0000
77.0800 0.0000 1.0000
77.0900 0.0000 1.0000
77.1000 0.0753 1.0000
77.1100 0.3455 1.0000
77.1200 0.5504 1.0000
77.1300 0.6433 1.0000
77.1400 0.6535 1.0000
77.1500 0.5663 1.0000
77.1600 0.5761 1.0000
77.1700 0.6656 1.0000
77.1800 0.4644 1.0000
77.1900 0.0990 1.0000
77.2000 0.4735 1.0000
77.2100 1.1229 1.0000
77.2200 1.0813 1.0000
77.2300 0.8873 1.0000
77.2400 0.4556 1.0000
77.2500 0.0002 1.0000
77.2600 0.2854 1.0000
77.2700 0.5197 1.0000
77.2800 0.2342 1.0000
77.2900 0.0000 1.0000
77.3000 0.0000 1.0000
77.3100 0.0242 1.0000
77.3200 0.1139 1.0000
77.3300 0.3378 1.0000
77.3400 0.8002 1.0000
77.3500 0.9288 1.0000
77.3600 0.6500 1.0000
77.3700 0.6783 1.0000
77.3800 0.9676 1.0000
77.3900 0.7197 1.0000
77.4000 0.1571 1.0000
77.4100 0.1984 1.0000
77.4200 0.4737 1.0000
77.4300 0.3026 1.0000
77.4400 0.0272 1.0000
77.4500 0.0000 1.0000
77.4600 0.0000 1.0000
77.4700 0.0000 1.0000
77.4800 0.0231 1.0000
77.4900 0.3068 1.0000
77.5000 0.5409 1.0000
77.5100 0.5350 1.0000
77.5200 0.4580 1.0000
77.5300 0.1801 1.0000
77.5400 0.0972 1.0000
77.5500 0.3734 1.0000
77.5600 0.4447 1.0000
77.5700 0.2570 1.0000
77.5800 0.3630 1.0000
77.5900 0.7272 1.0000
77.6000 0.9136 1.0000
77.6100 0.9921 1.0000
77.6200 0.8264 1.0000
77.6300 0.5620 1.0000
77.6400 0.8136 1.0000
77.6500 1.1922 1.0000
77.6600 1.2242 1.0000
77.6700 1.2144 1.0000
77.6800 1.0300 1.0000
77.6900 0.8235 1.0000
77.7000 0.3752 1.0000
77.7100 0.0000 1.0000
77.7200 0.0000 1.0000
77.7300 0.0686 1.0000
77.7400 0.3395 1.0000
77.7500 0.4245 1.0000
77.7600 0.1535 1.0000
77.7700 0.0000 1.0000
77.7800 0.0000 1.0000
77.7900 0.0000 1.0000
77.8000 0.0000 1.0000
77.8100 0.1091 1.0000
77.8200 0.2870 1.0000
77.8300 0.4648 1.0000
77.8400 0.6426 1.0000
77.8500 0.8370 1.0000
77.8600 1.0358 1.0000
77.8700 0.6487 1.0000
77.8800 0.1848 1.0000
77.8900 0.4378 1.0000
77.9000 0.6862 1.0000
77.9100 0.5922 1.0000
77.9200 0.5131 1.0000
77.9300 0.5159 1.0000
77.9400 0.4517 1.0000
77.9500 0.1804 1.0000
77.9600 0.0914 1.0000
77.9700 0.3645 1.0000
77.9800 0.4055 1.0000
77.9900 0.1324 1.0000
78.0000 0.1423 1.0000
78.0100 0.4187 1.0000
78.0200 0.4710 1.0000
78.0300 0.3772 1.0000
78.0400 0.4138 1.0000
78.0500 0.5076 1.0000
78.0600 0.5283 1.0000
78.0700 0.5291 1.0000
78.0800 0.3662 1.0000
78.0900 0.1800 1.0000
78.1000 0.3526 1.0000
78.1100 0.5172 1.0000
78.1200 0.3321 1.0000
78.1300 0.1607 1.0000
78.1400 0.0696 1.0000
78.1500 0.1976 1.0000
78.1600 1.0342 1.0000
78.1700 1.3248 1.0000
78.1800 0.4882 1.0000
78.1900 0.1126 1.0000
78.2000 0.3831 1.0000
78.2100 0.3795 1.0000
78.2200 0.1091 1.0000
78.2300 0.0000 1.0000
78.2400 0.0000 1.0000
78.2500 0.1879 1.0000
78.2600 0.4615 1.0000
78.2700 0.3099 1.0000
78.2800 0.0363 1.0000
78.2900 0.5522 1.0000
78.3000 1.1889 1.0000
78.3100 1.1369 1.0000
78.3200 1.0319 1.0000
78.3300 0.4778 1.0000
78.3400 0.0000 1.0000
78.3500 0.0000 1.0000
78.3600 0.0000 1.0000
78.3700 0.0000 1.0000
78.3800 0.0291 1.0000
78.3900 0.1207 1.0000
78.4000 0.3592 1.0000
78.4100 0.8109 1.0000
78.4200 0.7670 1.0000
78.4300 0.2237 1.0000
78.4400 0.2146 1.0000
78.4500 0.5795 1.0000
78.4600 0.5689 1.0000
78.4700 0.3804 1.0000
78.4800 1.3283 1.0000
78.4900 2.6185 1.0000
78.5000 1.5415 1.0000
78.5100 0.0750 1.0000
78.5200 0.0853 1.0000
78.5300 0.1790 1.0000
78.5400 0.3660 1.0000
78.5500 0.4931 1.0000
78.5600 0.2162 1.0000
78.5700 0.0000 1.0000
78.5800 0.0000 1.0000
78.5900 0.1417 1.0000
78.6000 0.5998 1.0000
78.6100 0.7995 1.0000
78.6200 0.6110 1.0000
78.6300 0.8691 1.0000
78.6400 1.5924 1.0000
78.6500 1.7472 1.0000
78.6600 1.4899 1.0000
78.6700 1.2218 1.0000
78.6800 0.9483 1.0000
78.6900 0.7416 1.0000
78.7000 0.5560 1.0000
78.7100 0.2931 1.0000
78.7200 0.0165 1.0000
78.7300 0.2622 1.0000
78.7400 0.5323 1.0000
78.7500 0.5274 1.0000
78.7600 0.5338 1.0000
78.7700 0.6221 1.0000
78.7800 0.6732 1.0000
78.7900 0.5854 1.0000
78.8000 0.6892 1.0000
78.8100 1.2382 1.0000
78.8200 1.2505 1.0000
78.8300 0.4271 1.0000
78.8400 0.0000 1.0000
78.8500 0.0000 1.0000
78.8600 0.0000 1.0000
78.8700 0.0000 1.0000
78.8800 0.3687 1.0000
78.8900 0.9261 1.0000
78.9000 0.6456 1.0000
78.9100 0.0882 1.0000
78.9200 0.2260 1.0000
78.9300 0.4944 1.0000
78.9400 0.2625 1.0000
78.9500 0.0121 1.0000
78.9600 0.5605 1.0000
78.9700 1.0061 1.0000
78.9800 0.6383 1.0000
78.9900 0.4374 1.0000
79.0000 0.8942 1.0000
79.0100 1.0309 1.0000
79.0200 0.3935 1.0000
79.0300 0.0000 1.0000
79.0400 0.0000 1.0000
79.0500 0.0425 1.0000
79.0600 0.1325 1.0000
79.0700 0.2225 1.0000
79.0800 0.3124 1.0000
79.0900 0.2261 1.0000
79.1000 0.0462 1.0000
79.1100 0.0000 1.0000
79.1200 0.0000 1.0000
79.1300 0.2329 1.0000
79.1400 0.5123 1.0000
79.1500 0.2756 1.0000
79.1600 0.0075 1.0000
79.1700 0.5584 1.0000
79.1800 1.0237 1.0000
79.1900 0.7496 1.0000
79.2000 0.5293 1.0000
79.2100 0.5330 1.0000
79.2200 0.5336 1.0000
79.2300 0.5267 1.0000
79.2400 0.6275 1.0000
79.2500 0.9084 1.0000
79.2600 0.8429 1.0000
79.2700 0.3778 1.0000
79.2800 0.6753 1.0000
79.2900 1.5855 1.0000
79.3000 1.2647 1.0000
79.3100 0.2651 1.0000
79.3200 0.2046 1.0000
79.3300 0.4830 1.0000
79.3400 0.3021 1.0000
79.3500 0.0237 1.0000
79.3600 0.5836 1.0000
79.3700 1.2162 1.0000
79.3800 0.8512 1.0000
79.3900 0.5122 1.0000
79.4000 0.4191 1.0000
79.4100 0.3597 1.0000
79.4200 0.4484 1.0000
79.4300 0.4387 1.0000
79.4400 0.1702 1.0000
79.4500 0.2039 1.0000
79.4600 0.7613 1.0000
79.4700 0.9357 1.0000
79.4800 0.6531 1.0000
79.4900 0.5257 1.0000
79.5000 0.5274 1.0000
79.5100 0.4095 1.0000
79.5200 0.2231 1.0000
79.5300 0.3034 1.0000
79.5400 0.4843 1.0000
79.5500 0.5218 1.0000
79.5600 0.5270 1.0000
79.5700 0.2771 1.0000
79.5800 0.0009 1.0000
79.5900 0.0000 1.0000
79.6000 0.0078 1.0000
79.6100 0.0972 1.0000
79.6200 0.2192 1.0000
79.6300 0.4928 1.0000
79.6400 0.7165 1.0000
79.6500 0.8033 1.0000
79.6600 0.6983 1.0000
79.6700 0.2486 1.0000
79.6800 0.0000 1.0000
79.6900 0.0000 1.0000
79.7000 0.1470 1.0000
79.7100 0.4204 1.0000
79.7200 0.3506 1.0000
79.7300 0.0772 1.0000
79.7400 0.1957 1.0000
79.7500 0.4683 1.0000
79.7600 0.3004 1.0000
79.7700 0.0278 1.0000
79.7800 0.5046 1.0000
79.7900 1.0665 1.0000
79.8000 0.6955 1.0000
79.8100 0.3434 1.0000
79.8200 0.3429 1.0000
79.8300 0.3583 1.0000
79.8400 0.4515 1.0000
79.8500 0.6648 1.0000
79.8600 1.2225 1.0000
79.8700 1.4913 1.0000
79.8800 1.2206 1.0000
79.8900 1.0646 1.0000
79.9000 1.0551 1.0000
79.9100 0.8070 1.0000
79.9200 0.3463 1.0000
79.9300 0.1723 1.0000
79.9400 0.1745 1.0000
79.9500 0.2401 1.0000
79.9600 0.3318 1.0000
79.9700 0.4946 1.0000
79.9800 0.6751 1.0000
*RAS_INT_END
*RAS_DATA_END
